Time (s),AF1,AF2,AF7,AF8,AFZ,C1,C2,C3,C4,C5,C6,CP1,CP2,CP3,CP4,CP5,CP6,CPZ,CZ,F1,F2,F3,F4,F5,F6,F7,F8,FC1,FC2,FC3,FC4,FC5,FC6,FCZ,FP1,FP2,FPZ,FT7,FT8,FZ,O1,O2,OZ,P1,P2,P3,P4,P5,P6,P7,P8,PO1,PO2,PO7,PO8,POZ,PZ,T7,T8,TP7,TP8,X,Y,nd
0.0,-0.624737620293489,-0.6337577457341264,-0.6971820670860431,0.7071542807695783,-0.271357709379067,-0.44474601466138175,-0.8404942488669844,-0.10242466077120049,-1.7296397234145449,-1.0297221930101514,0.1659834644974294,0.22012892692896568,0.11238479038767202,0.13049291530948248,0.28980001085537155,1.0884246964587319,1.0738905903948561,0.04164226130961601,-0.05555567598798428,-0.3290828860338495,0.2264399266905065,-0.13003230675222222,0.17565946307027525,-0.7292017274549192,-0.25900903999415004,-0.750813138806457,2.126787073052488,-0.07548214057902591,0.17918825492433,0.23338069628749625,0.32288499532003473,-0.5985091653508954,-0.11496743070647364,-0.13225254301166922,-0.6561651250508627,0.45043885387885013,-0.10778558216337286,-1.7825994119499153,0.3864503100166703,-0.14913422316920788,0.1533027766852849,0.11998422424051647,0.152387280793449,0.33397634025743905,0.10649242057901354,0.43641515464078773,0.248983215522684,0.5601039429241299,0.4781298756702481,0.3645982112451618,0.1334366824592439,0.34754275308531235,-0.1542282707411715,1.3643629872567455,0.9164201331490416,0.0280655535555919,0.10345374987151972,-0.5618643953814564,-1.1178923453657497,-1.8213486310419853,0.18101131440883994,-0.42320995866376343,-1.236752185807128,-0.6612268997184949
0.25,2.3660643879652272,4.22638566751049,17.464265154809134,8.991423252042292,4.630028817936022,0.2539189176444061,-3.601538866857341,4.547042418555703,2.3173414819165528,18.034629323425587,0.9562994354218596,0.26851271298620405,0.6326315515364601,-1.4355820901786287,3.2667095638768258,0.8714832571298143,-8.81073520077274,-0.7572165547309719,9.478541701456493,3.823452515902688,1.8800297666643133,5.08646336020894,-1.2110510338446583,13.58338655765867,-9.994619688281722,12.082521046714016,0.8075167545105573,2.5613035339095105,0.9842975308508074,4.342230638507305,10.779574324440471,13.745201582836534,-1.4721498157764086,1.2609179567248314,8.071300780861224,-0.8736779632348453,0.21426157371142596,9.74214535730112,-5.582927309954201,2.981802467319536,9.932128882343155,6.628811200526322,8.580369787853439,4.588724512142181,1.5331961970085823,5.216291814537728,2.5238911706758067,7.650792809476186,3.0867640006933907,9.559437936610891,0.4370616502330963,7.438634672811638,5.245765161354336,-8.792763096280368,-8.433038671706433,5.936442872877913,1.6718980068946898,9.224005704776188,3.7147725872987998,10.725726871535782,5.295163749387627,9.482256657593743,6.060971125936842,8.041707630822028
0.5,-2.3083496186894714,0.1793814900132783,21.05798300544361,11.551227846608503,-0.6756084725320809,8.083961838017007,-6.714837120709616,14.37423142727219,-4.245083471391331,2.164530818910962,-1.824706856162865,1.5823415107720973,-0.4908196157028029,0.5905802050940061,-0.4876624540827611,16.958723450237038,-10.872179768000501,0.5748228975726161,9.921689037559013,-1.9762022248013735,0.18802523729097903,-4.430251195165955,1.5831974490521272,4.816225058875901,-11.147052847529899,19.820112922406533,-1.1493774694595214,1.7097995749089165,-0.3388961569108014,3.4266910277132974,2.6048126994049423,4.775119740999076,-1.2028202669492267,-0.3799133800353932,5.207313181649319,-3.7378550147258354,-3.2500231271752273,13.071978189493317,3.594135957537193,-0.4346334579563879,2.98019508617911,1.1112419409993273,2.545302165332163,2.386290354916258,0.3431899284784458,2.7462579763148054,0.12178840395530015,3.9814983489739,-1.8626207528642382,6.894137317378961,-5.553885093926942,3.015812271147662,0.9863304022208954,1.5988913244776424,-10.375449153990129,1.845718275748683,1.0882193995092488,9.475434098065993,4.49691784470133,5.6580669896555875,2.6404828162680354,7.211436237071312,4.631841830365484,5.121896888222925
0.75,6.031454477121818,0.578950596954098,25.853289330399157,3.2636527200618968,3.500191334679905,-4.3856781726241625,2.9938672964671618,-13.850600817676765,4.219533657229973,17.575277903337934,0.600236235699737,1.744192588721908,-1.1329563349610776,0.46664273963331315,-0.3450872909713548,-1.819909823864383,2.1877561351988954,-0.5286104207210953,8.814485992812859,4.314314006541921,5.978921461583214,5.310653452814581,7.3139811437522,3.571471950846878,-6.085061663367363,19.33303644253017,8.647542250386005,3.951554001951994,3.3476858134812635,3.437338340607311,9.24541899988541,3.1006204925684226,3.811079603712714,2.178510831460774,12.765652343648394,1.9155688788137195,13.222796460677205,10.069766453484226,9.14169899793323,4.596584828543632,5.423148514625451,4.216633202960281,4.86810861851373,4.357811693088061,1.044418469422347,5.158833980331189,1.3581780160196113,7.848773033103557,1.887354964782341,10.200025381798438,4.70334327650552,6.666350730960993,6.389744557928651,10.875681893326815,10.479884881548557,5.043542176628019,1.8783320512066495,14.047250367066383,18.55696612655778,24.814712164168917,4.626543677463171,8.473131059487963,13.212793858504536,12.22452470560371
1.0,4.1761002624511026,-2.9671244977512012,10.508150359005478,19.784457330079228,2.2127854827213644,5.065724664818131,-8.869719605427719,16.409829066264333,-12.94535535419171,7.1295859451878725,-3.3719362064635474,2.437679276168235,-2.124299830841041,4.0882519496121486,-1.6990307167916765,3.443238299944448,-6.741033127865726,-0.7280683269031407,3.0723039714718072,4.085551405072708,-0.37228254474901623,8.898227815120624,-5.79930084205755,11.146718347564956,-14.668703433786252,19.345500285048075,-1.4788612053388397,2.6668814686516864,-1.1709287058495548,3.925012132514083,3.2223795505989106,1.6265744028032965,-6.1586317367443435,0.43007746695356996,10.918127921621062,6.827016915552767,-0.9879503024830254,0.22768418517536326,0.9059289365042575,1.9643955331947822,0.8002647992694689,-0.9149386293614792,-0.1072790707978345,0.6590251903223865,-2.9410901902964897,2.9225063375760385,-2.070530229384755,4.576449872569784,-1.1436706421257146,5.020747052753377,1.6362085492469978,-0.006488204045192625,-2.1225912318979185,-10.111701873919078,-2.078399451553798,-2.0671308918885036,-1.4845810563487456,11.947944691884356,7.785602442868418,14.336725404412029,1.749759030961553,4.041641358196955,12.083217460623247,10.935931561795982
1.25,8.429935550353012,5.91870204667511,12.492302051968696,20.36807516347174,6.673735710854137,4.513157749376037,-3.574265170489804,14.470495948298813,-6.295699588386123,-1.813491668685053,0.7783089695034142,-0.8819888870344039,-1.5137888233973498,0.0877759748152015,-0.17564673653872598,3.648016609061783,-8.706539073317222,-1.8050687459868566,5.017052850542209,3.3023083634091757,1.9361071904562333,0.8219392651284032,-4.902840410625886,10.369718215876643,-5.4009557163402135,19.33664543067112,9.881004855520088,0.5126834893649005,-0.4292181657355456,-0.31227116583928294,6.8567819124343155,4.420296344561545,-2.642695700109385,1.0948302829519445,10.26041333441373,2.535650092625554,2.851171693809967,-6.724933506923758,4.887826073283772,3.75847651104411,-2.794954024552109,-2.875911797796715,-2.974407515062331,-3.9374006811978814,-4.968616869687123,-2.0135101388429613,-3.279948665907061,-0.3141977168408565,-1.4713594370590015,0.2793560173232579,0.5518312617630179,-5.900579189884779,-6.174432940686285,8.204287920637087,-1.8261525314670704,-6.040986694260026,-3.451534128571184,1.6012861898379092,10.936000675575203,-1.6086671580980543,7.971521087777356,10.865539591634754,6.5037828480431195,10.693584589095323
1.5,-0.722773328234768,-1.3644694354181301,21.208746435131697,7.909781793832789,0.3134917606257679,5.845669132907546,-5.6160752274542105,8.801095219635641,-8.068350956923627,8.816719557940857,0.6476403992470252,1.261679384570022,-0.5213211460988347,2.0714878858137555,0.0007594861917694651,-5.776659977000684,-9.365236434353193,0.10346319801365156,3.4735654055494987,-2.5372657749476826,-0.4348493742191507,-5.686856522161234,-3.0605821317649076,7.952291647720635,-1.6552198581713098,18.22084945413401,-0.8107285572172405,-0.9926508050654574,-0.43600309926509206,-1.8142481966480526,3.6768495446728906,-4.149823342538535,-0.7513789438207363,-1.0050354858243538,11.348007233473503,11.869088572981266,7.529842677441021,3.8499229362997056,0.5428766129150372,-1.2039674057786598,4.217999868619184,3.786449013857802,3.8984772477022096,1.6786524217747725,-0.6620540911646873,2.97481856153721,-0.912251761993538,4.540388375382864,-1.6691925853068188,5.931385415662204,2.640130475854342,2.253545740505581,-0.026635086891400178,-5.999487445226025,-10.34170633937952,1.399488205983038,-0.17391400973680737,-0.6367938668290369,2.1364985162144774,0.14297163535317114,4.085555995152922,12.820238403873365,8.907430707830624,10.854611932733759
1.75,3.510279966161609,3.667294166801863,3.66651564344603,11.94059612445277,4.1081731623919415,-3.440133384015445,-0.020642080562420034,-8.604837330243752,5.565370815688796,-4.299332012872512,-1.274930111677911,-1.2013153505420109,-2.0044974581503894,-0.8959484169512093,-1.9993449880195715,-2.5471790259168614,-0.5544699318154801,-2.3068081902961817,-1.3272414428263968,4.14833190774219,5.6996294606341955,6.4019590075235175,5.779571591480535,4.766975328065669,0.5656138628569378,4.445663901133004,8.988915226485558,3.547314631271092,2.898393778145302,3.310151370761741,6.733935842681227,6.651405890687765,2.062485801770436,3.0491236778868758,5.731267587763349,4.8310358932734925,2.57383616684376,15.404732493758278,1.3505095913592897,4.51244527465301,-1.043420754703988,-2.707751821007503,-2.2000916237741963,-2.5108393117924077,-2.562949185271203,-2.3380997186080617,-2.3765359368058236,-2.5312817283699283,-3.1048531834945674,-1.7682955658181718,-4.596308949071185,-1.9436754160459944,-1.3765064049573668,-3.072369005259577,-0.04844896404900778,-2.3711833786462,-2.06953846633884,2.9574286967858514,-3.809266966211787,-0.7467709622613161,-3.278214238329626,10.670449992003759,-3.8808333531189056,5.564872632618851
2.0,-2.932088003761613,1.5616157528544645,-2.2865292688697156,-2.0353828455761365,-0.09586942308435842,-2.4999783377185647,2.0847849533211305,-9.811977167678812,2.982819561749804,11.435513803019768,-1.3242304030375496,0.006228153667328762,0.1419799001593065,-0.3352982168340404,1.28465246024824,-2.3511598675663814,-0.07814472459656852,-0.2275161476904352,1.4028035434593313,3.1759688104771207,2.0681253628881366,6.271726810056284,3.9612108039062,5.558568722350385,-4.035890263010108,2.054979292719448,-10.84921196376737,1.271910827715868,2.2023468024188553,2.5634058701127973,-0.1524114464137063,9.994956595160776,-3.5479350656425135,1.5784835784502944,-6.299619974677325,-11.578994190115207,-1.8428403962082747,5.201390319223118,2.307954532703336,1.7095322759632559,-2.2583654076723794,-3.072028209700729,-1.8065189595239457,-0.3362674385227813,-0.6788592294273866,-0.9259912930742056,-0.17827350060475894,-0.5423312864102412,-0.7764010741630483,1.196845529022195,-3.7345837724358213,-1.484020216639863,0.0882012955169626,3.43549815906904,3.2195013624488453,-1.2282254304681275,0.13659990890932003,5.177289178960367,-11.610117917314746,9.840830638711047,-3.871618314426284,-8.185562380604065,-4.815822243868271,-6.453239182581758
2.25,-1.8427677042061417,-1.0776481258300956,3.537263803438222,3.753977548090507,-1.5773935361872642,2.100212239260639,-2.9261873221436034,10.476671789900763,2.6942262442763942,-1.5448561437400874,-0.42876873968799795,1.2972293821158625,-0.2397007434051066,1.6275792492735022,1.3098874004511414,2.71568547420126,3.0191272020087947,-0.5586833805548717,-1.7610412795455188,-1.2274465101167964,-1.522227743768645,-3.095652275434583,-1.4984506480423079,-4.183702704253156,-17.827671181239513,9.462585561879681,-3.1122333141183782,-0.22032320104531733,-0.204776695598736,0.17427689206213692,6.665826322517923,-13.097395522843266,-4.386102791336728,-0.4492461299624386,-0.06138830015227015,-3.182283178718178,-5.097898248651921,-8.9473739366793,-10.51140340349509,-0.9481531970854933,-3.466979002234871,-2.6848658184384817,-2.801952394435788,-0.13940531976152848,-2.4613651186994128,0.9668089612843577,-0.9025948064732725,1.8098783412610238,0.1243812848257344,1.3537160034079907,-3.4806135334445423,-0.7181480292338134,-3.1001617576928187,-10.913784111083459,-12.68760504389541,-2.6542805364798663,-2.6868134368813403,2.982292963112028,5.286633429759419,0.8753291990851388,2.617466317651199,-2.809317187273151,4.895226254793303,0.09157168962046924
2.5,3.6523390317223905,1.7268215947745316,2.9913300470686313,-7.5228879299303575,0.43481755906578373,1.7012953578908916,-1.0864728466417217,16.28345456337461,-0.2828146512711278,-2.4461264085696985,2.248314636243716,0.6843843640803604,1.0807352359528648,-0.9376682744941416,0.9869250440725167,-3.494139594279121,-1.726899847893809,0.7189210863350821,1.4619601788534,-0.6843272271045284,0.36700917589559634,-1.0683958021133566,-0.5290102595706847,-2.252506740347105,-1.8424617411525555,-17.77412355511524,12.864707035675707,1.1012298773964053,-0.39428503167333034,0.45573549147834735,4.801824600874871,5.054943158333421,1.2707076325456514,-0.8518139538174319,0.6479647443823726,-5.916532859689733,-4.189642874725044,-5.352244627113869,0.2164824609137006,-0.21703791893615576,4.1367039236581,3.4052657141585447,4.3797850411129495,3.6463709994544824,2.3716289168706695,3.7945882618788453,2.319799134065483,4.954778455809239,2.1936304434776432,4.318599475224777,1.6663060117069444,4.5887247747053195,5.182065425337372,-10.391322198894866,-0.7001247049097404,3.839900329811165,2.8012831285734245,9.135075194066411,6.827220488927303,4.636086195562155,0.5818243648720146,0.7236516300948885,-3.200579318468228,1.01353734389919
2.75,4.2667609522596415,0.9570635216691932,21.595274065523487,11.74982974890032,3.8329944632168216,2.4103904053323717,-3.448229630950498,0.14271605012876698,-10.597790076512275,13.610218304816366,3.921730371322595,0.8192771857089255,1.0364522262465736,-1.6148728745056236,1.3954958197732437,6.8940579536868345,-1.316596457756922,1.1848882233119564,16.472633914636376,0.7208995730056078,1.4440571247755105,-0.0868579155494067,2.4354652376073287,13.986823285056568,5.566796693224957,14.739723774803156,-1.2353740795635668,-1.3918878872830165,0.6369326421502173,-0.5655655140334435,0.7935174277581387,13.909872524926568,6.08184821683133,-0.24724944826267636,8.941998790894404,2.429547162197141,3.15200665909414,2.627180399930609,3.2838793938433817,0.8608153942723369,5.205645201654425,4.901506837887979,5.365887330890173,4.527073170274034,3.948472846673467,3.271429470826515,2.8558302016336383,1.7291850769479864,1.7462904539464406,5.494192054679246,4.324935394334501,5.782610424576544,5.576396376245837,12.928196877005382,6.255382744076419,5.758322911193442,4.102796018372346,3.6923136815338857,0.08926197548961934,6.385546525018192,-0.6455658951419379,7.844816323731866,11.961825798372589,9.175048216549929
3.0,-0.1840791702166793,-4.449497324083774,2.6651858701673774,11.497370891021294,-0.9478139348943613,-2.613131262888527,-3.947213714082788,-1.3328428084060215,-5.692012261061091,-10.58112433764193,-2.2476529641018312,1.8952834610792118,0.09269672411448376,1.7895509906183038,0.1407141565287695,10.20449413049008,-3.8076871351748456,0.7433455082369447,2.078287630959819,-0.014291870561604414,-2.1022530123679326,2.199624268535797,-2.9555362745226503,-1.0650367199022717,-7.889000475199761,15.099403413430412,-1.5998801510915523,0.08581408962223924,-1.3835015727578965,1.2040646545416704,2.9329310122259096,-2.8475533805176854,-0.021108806597035068,-0.842008567867784,5.774751004936975,8.1484443693748,2.5223239334274337,-10.340542394814996,-1.2698254685876726,-0.6235157940984233,3.6332266523435224,2.221209051672338,1.7098863952836791,2.644613162526688,1.401568620140794,2.367885371673338,1.266259824270238,1.690494783560232,1.9256607448351981,-1.723677911646647,0.22564987295218053,4.120012194282975,0.36464945373516233,27.5350074711089,13.000113216228868,3.365754534698351,0.617047557847886,-1.637077136175634,8.623035937392427,-3.554749516674697,2.0682414443414574,2.397362878060548,1.987958824460696,6.104327608021235
3.25,-7.046692460445138,-9.103267302171599,-8.365326825620802,-14.96617424170189,-7.8744037648731515,1.9643764133679409,-0.19569826610921837,-3.369279788366072,-5.104899132832195,5.2228358455669674,-5.6823941579826025,3.22378090455553,0.05872681791371159,5.242470406524773,0.0875247732446476,1.9546906082489848,-2.017337260096017,1.7695101159506124,-11.38151583648838,-3.934264223938797,-3.6676164932333837,-0.9403857085787133,-5.320283072825905,-5.4753475068903725,-5.4243053514913795,-4.4536430690467075,-10.728139696678106,1.1240566771199065,-1.8491171332828031,1.5755599351410696,-2.286834607389421,-6.511691390584227,-10.052584562110482,-1.3594310674506471,-9.068545759414809,-10.005594702771738,-3.5615938164234144,21.080868310443314,-2.389716095916656,-4.416290520878,9.781858633780832,7.724837856026863,7.966322337369919,4.536444749345929,2.14906566988523,5.002771103033458,1.9448038129583658,6.990802263028014,3.0958570152773555,6.1386922577552605,3.1888107445151332,6.75882390158154,5.069966790937353,-2.615329172649368,3.1116324527981285,5.725227110881971,3.2915524729990553,-2.4203194025825314,0.43532852494206375,2.0047849147736443,1.1525379809458265,-12.127283545266733,-7.775568356323289,-9.42431863401719
3.5,1.2576103609930984,-0.8270094694175616,12.226752701781848,12.207179019657026,0.6002116727376581,3.0996690385170593,-1.658028597244159,-1.6824889823027513,-1.5565431343857918,3.0574894192523363,-1.2024000244476223,-1.3641289181024125,-2.3963110422977527,-1.3642041364754047,-2.475067307038395,-5.799677895414409,-0.006604935803357748,-1.501247119312984,3.566908364309401,0.9224457388745,1.152570418699921,0.45352447273637386,-2.859325602161727,-1.0598711095149937,-12.9654483703696,9.3401191772369,5.600090571058838,-0.3623877747780093,0.16487813674380827,-2.6978367382569304,2.3839026009160245,-9.54092148927165,-4.618356025965456,1.131292050032254,2.8048013466564523,0.20077598406784647,-2.3812876301510766,7.826602841893985,-1.4006712945783675,1.4804166052065648,-3.9325205400719834,-3.374177997960646,-3.1523052756837484,-3.212080088956686,-3.1020678086910585,-2.447766563322356,-2.7276237348257646,-1.3505730767166753,-2.243642553605961,3.465931601365039,-1.4015998936736276,-3.7245032568370435,-2.2059186724697457,-13.017942671155874,-5.231727951582827,-4.045663484353637,-1.8985411281633944,1.6103469322457142,11.054911022334402,2.2397900425350903,4.253993012606283,5.157648613495693,5.821507955674515,2.2381884050944523
3.75,3.9301788122866914,2.8347905942725107,5.211567886902822,-3.3950310411948927,4.349212475006738,1.0840701475855066,-1.607223556498236,5.060534170541116,3.091907848583013,0.8144887750688135,-3.115568456224891,1.6730140727332545,-0.36241132485825395,4.491236147088876,-0.48047232092119213,17.092879664342952,2.4362577484891066,0.40634587604598305,6.35875550667587,3.9000982745501203,0.3911320611860749,5.986104878732002,-2.6895787944589458,7.493319247788428,-3.5465723770249524,4.593796093884193,-13.709993948017258,0.7311929824209037,-1.0226709108319423,2.3825463440874293,-1.4968332008490024,7.831554183399485,-4.257465658416009,-0.13544200515970767,8.156064671727027,5.298391017302244,-0.2799409388708399,4.358609534625539,3.1994925171110533,2.6726597274801884,2.6843781643634186,1.753098806297487,2.739557238637598,1.2275199569149344,-0.591954730949449,3.4676874803564006,0.20664198412227042,5.867368971958841,2.0809250924708467,1.089109441201657,2.010941810981247,0.6166394710737979,-1.1378051412243457,-3.0099625744077887,1.3593022616243533,0.17406792362552315,-0.7833185853160503,9.967004227510685,-1.9794003226844619,13.566616150396877,1.4741387618323922,4.400523909454188,8.346155305050988,8.4948634708856
4.0,7.808163899211467,2.4953769251117555,-9.174556455538948,-2.2526745611429533,4.125721979544112,-2.5948097700347996,5.308161627399806,-6.317006269074354,6.474374861502036,-3.54307730938085,-1.8853008630764414,1.414651430104354,-1.5067068081527968,4.2632514223910345,-0.8129600545351418,6.552883063651306,0.8099507596772417,-1.5003636041332271,2.3283777850299905,4.389645129441701,1.55380021536789,4.498882309867055,5.834683779553847,6.627574414643314,8.365417725115922,6.2997177990716,-2.927384429652506,4.216954425391442,-0.7981351471839262,8.835306997334161,-4.019056732481857,8.564906563715804,3.82844269903055,0.44053714484269557,2.3071684705707183,-5.422358074802023,1.4420900525066815,-14.207731751497139,-0.2713286204465213,2.6917738356119867,-0.5262856073485713,-0.7835033185197962,-1.0873409859919212,-1.8211119493665167,-2.899360171663361,-0.8684046936334512,-1.9661094912529515,-1.1565076553360367,-0.8999258734156634,-0.7321212437808771,-1.435263192467886,-2.6818155397403967,-1.4179434264430788,-8.917979422061112,-3.8727093359812104,-2.5642680438965244,-2.2369070107435065,-1.9948603827604052,-3.3952273896094507,6.33250742903607,-2.495734349788408,2.4372111903280196,0.384487375385965,2.7313680816455923
4.25,-2.0081877803975,4.150573230246044,-8.046860166725493,8.567472876594703,0.7421390289146768,-3.632509594228573,-2.5087810388736993,3.7517111657854896,-1.8353307050231846,-2.6846961675606487,-0.5781919726305973,-0.9724537044804644,-0.2247546377625716,-3.884749549361832,-0.30987768083262973,-28.602311276070363,-8.103070602301552,-0.642825169240571,-1.4628928940574952,1.2608968713128685,-1.1137549927265968,4.255247927580485,1.5203068899184995,-0.8268902205436621,-1.4703835173648647,-10.999110341098142,8.872875928851148,2.057315652781516,0.11388752272065594,2.028759127800238,-4.78836299847613,2.096558093245589,4.6277308286385885,-0.005725230288018357,-3.416369487527658,3.1817603176043887,1.3398401014853412,2.6441884097464934,14.271231731687333,0.2602622413493909,-6.158213488075761,-5.951879839750718,-5.69195811303829,-1.807217542048591,-2.0741506659414912,-3.1184325182953305,-2.119567171904943,-2.6944044683329684,-4.1887820927364245,-2.513967275793398,-4.288640285554201,-3.082358831243792,-1.8823368604597546,-7.632190244757265,-5.182328921651631,-3.3340502383098016,-0.3715444736021083,5.321898835962756,5.4726308401991846,-4.451885240501725,-1.5801629399881083,0.6481491940971082,-4.700055288935313,-4.09092305143405
4.5,3.5404375790084437,7.862614143489516,10.518169553114323,18.18981725002679,5.746574002115837,1.1046552823274967,-0.36919107716278987,3.3798042942532334,3.5791410439665343,13.115874718946449,6.25406942212543,-4.4071595663200425,-0.7147198282501308,-8.10853874871254,-0.48317698850048185,-0.14754240547311337,-3.8736357524138807,-1.752822710599608,2.8110081644006293,4.347583516485504,4.56020261399259,2.7999968956525745,2.1013932922518705,6.321915943281678,12.436556063531093,6.669026771467372,15.007580810344134,-1.0627477174949884,2.396614852438921,-4.844077752942692,9.685706274352176,-3.421198981979229,11.441666623322073,3.135612335442631,5.258491377778315,7.432776123956555,7.8979700149520635,17.81668737136654,1.120115532886965,5.281610524626071,-4.422304088569049,-3.6496886830168003,-4.0898424323238425,-4.087214131345601,-2.6819931912739907,-5.261144143008857,-2.4816650832559053,-5.329849269495764,-2.9915272069073287,-6.2531064667152005,2.1503426942255923,-4.73782328212341,-3.903307519923003,-0.17561979419504903,-4.46053563483054,-4.553207267176291,-2.7059313189304635,2.5668645355762205,9.271843995045428,-1.1774066358330284,3.309074292170518,3.8306148828831046,7.3587245829072945,5.204276950036496
4.75,1.7962063306944396,0.30992059304435543,13.257556502805112,17.50848545633721,1.0529504746145701,9.247592633276243,0.1435061042316681,17.156272788657922,-2.928137135080979,-2.4920181428687154,0.8427939520500791,-0.3900828145056021,-0.62625845001976,-0.31223423131909733,-1.8449454508747998,0.7620105264335866,-8.363644450875833,-0.21758389131122596,3.5007046413400156,-1.2413211752277369,1.9271410657184744,-4.562631648266374,-1.557534107917101,-5.299914435257666,-8.18664474678357,18.934920623944326,0.16626938260961932,-1.6178094627961248,0.8113142806983286,-4.007831500952679,4.299259174306503,-6.060320992954087,-3.9375976320312134,1.096502221592895,3.2662816504605514,1.1706619865188677,-5.228112108829091,-12.332669454733846,-5.777975667892282,1.0856090609080031,0.3798368666280958,-0.9471026751949214,-1.1144358877853535,-1.1044070188832973,-0.4700027185001222,-1.4708192982818593,-0.7077027370287169,-4.495238233374697,-1.637234760305072,-2.049781552295615,-2.360154495157822,-0.2132126620566781,-1.6280661586588612,-7.105519955124281,-3.9486323076950445,-0.4208427445977523,-1.0937776269033725,0.6584456031951333,5.575612061386306,2.641675875682229,-1.363244538779822,-0.7512000146472615,2.8054449859564468,3.958272911323021
5.0,1.331452835423244,-1.058279768571178,2.172716103199032,-2.9166261933510507,-0.5025453788372909,0.9493646724882929,-1.408459764846668,4.6602536493079905,-2.734706570626525,4.668539880513352,-3.7114823667930423,-0.25974898524726975,0.46847501422168747,0.4834407459411587,-0.6233084211211408,-7.336168549871305,0.9398103884540623,0.001760823695209579,-3.0553315706362865,-0.6714506362187551,-1.7699770246060773,-0.7338021093627667,-4.331136028755786,2.5431189481623466,-6.461953699992432,12.098969937334793,-7.4105611144896555,0.463493041982187,0.3053194888985532,1.8012592311934492,1.703764813792831,5.4436579882195035,-6.70810334287674,0.43494658648203255,2.1307328762982225,-0.06556993554986712,-0.8375325332851689,2.1082067581870945,-8.721862879751473,-1.0584708866626285,1.8738424698532374,0.9432810788331766,1.120406429005496,-0.27919701807376585,-0.3666653867580829,0.8218729733355925,-0.3537582309922953,0.8665422771911708,-1.11116335877801,2.414089443087013,-2.4119729547480846,-0.08707581963328015,-0.5474142149057479,3.467900178270612,4.421714008292047,0.5155206231915586,-0.547708547139884,0.036162710937636344,-1.493088353599128,12.164265230182489,-1.5211854872173605,-0.7236614142029909,4.471230415431297,2.4480348130896097
5.25,3.187381019414098,-4.008868002720765,-15.229021098521702,-19.536526454894364,-0.8443371085101765,2.6752265886328352,-1.9554631499533983,-0.9737240456869198,-13.730132443019713,2.3481189675192784,-4.2091754203810225,1.5163367129137015,-2.846853191549097,5.175647704239438,-4.5412622430858285,7.631638579430399,0.5770361459733913,-0.8837934215379473,-6.260486690900105,3.892799945542931,-1.2459558010625675,8.99259090347445,-0.9454382129796911,5.168627510183064,-5.76469042280921,-13.222272193232838,1.1571536687309965,2.697421912641386,-2.2952806281673137,5.014496476361272,-5.06353021985,10.236016963965701,-3.734053159682219,0.4757933270430728,-2.3181808354034246,-9.026963963369976,-2.397157719680867,11.86086886849287,-8.225311247142201,0.25616776050312257,-5.685783574458336,-4.253542961130543,-4.9112386411157205,-1.686211034700217,-3.473411699980479,-0.0316317325963284,-4.171576968518211,-0.47311991946963344,-3.1047427560672856,-2.2792452594171726,-1.3723067067146721,-3.989073056680204,-2.949683016211079,1.8561764459278987,4.568484268312638,-3.923331965841668,-1.7364809731524429,-7.091795019046276,-4.306469596400772,0.4880316000752103,-1.96872640786501,-1.818474203747428,4.0450854485816,-2.5174655495911074
5.5,2.6373296238221147,1.3803828338503399,3.268545183002237,-6.393279249805676,3.208837572448446,-1.1121212170777417,2.3725949339046304,-4.330338663775732,7.348533454915538,-5.97745551981318,-2.4349303339312334,2.1520500216100507,-0.5137003808427281,5.0333681554980805,0.1145087344504701,13.002794168882746,4.480050570588182,0.5337064775126347,-1.1285809654091752,1.7772499413902116,-1.1890267609109344,2.012679862090317,0.7114841992373889,-0.559655623127342,1.3137388125840248,-7.391863691665199,-15.70738688086501,1.1692132233455945,-1.2649152763549973,-1.1934338349226798,-7.084425217358249,-2.281887689784468,-2.4939020259736786,-0.152255162764113,4.691510783247052,2.588719295277861,1.8424309936285448,19.813904475539292,0.6977810211657545,1.0071894460701172,-1.7439402328773341,-0.7687544694479145,-1.234731317459647,0.7767974449980167,0.45945169591776447,1.4742933959874047,0.7072150935010492,1.9575805567602997,2.2021564341713527,0.43409425416226344,1.1235482647516724,0.3229642115057498,1.6495171551050385,-2.239429071453848,-0.23367814095773748,0.46310029104645867,1.2012124527498957,5.123330180960349,-0.8562518584571595,0.12856041502410953,1.2625380407633904,4.213266702085463,9.294598851759487,4.886567409668187
5.75,6.5509724178465945,6.559200982636777,7.8106722560513795,12.417659816043592,5.412438780720273,-2.174950322491223,1.5708059072445644,-2.9136463298775226,10.143346410985131,3.6997336857273746,0.9445683585983746,-2.7112121042823984,-0.9671801668243676,-4.5287000447397165,-1.9882248546186723,-5.1876928022754845,-4.918052205088072,-1.3604489088387537,-1.3727100710628932,1.8875807856964728,2.6013657651085182,-1.1732213910137812,4.086399987717235,7.438300289404296,10.299566470530051,13.007971024898517,-9.608291175887278,-0.1986905574045723,0.18677440701679338,-2.646583197311832,4.5930973559748605,-12.896891578760604,6.916207101924125,0.6913195331881187,8.20983355564701,8.664409785574277,10.274451113631056,3.3696092305230922,1.6472423041087891,2.7084620781943216,-2.527880361208724,-3.1368562445878134,-2.7006128932407663,-4.3001582779446625,-1.6886893629946165,-5.106996267246754,-2.3254581899206546,-5.781705416476038,-3.3574569733147634,-6.069245309183591,-0.17359436256954885,-4.5450642747142025,-0.6698611719738177,-16.027722791234755,-2.269170066417753,-2.2015237741070885,-1.7564606587253535,-0.36630091281383637,5.720046703475797,1.2299319192640004,2.09407788362589,5.439069603981267,3.1549766069634155,8.276194606701345
6.0,2.379680113726477,4.194568859152529,-5.982315887584614,-2.3789011138801293,0.46547472930556855,-0.5615744451305493,2.730144968306624,-8.397223998016065,-0.25420758208826477,-4.233935895550974,0.7371922876024228,-0.5794085809125288,0.24910644130830112,0.1818132128418286,-0.9457936250042858,-1.8190352338492086,-1.289628250621957,-0.08974596779742522,-2.11012591631346,0.6415444236296007,1.2437369414093185,4.139752374183247,1.365113158872645,-1.1010822856123215,0.8186396629022596,-8.370846435735562,-18.002975169030393,-0.6578286305256463,0.31849773301781975,-1.5580776609731668,3.5858541894280576,3.5764142609859024,-4.5039110131943705,-0.09173152296982579,0.04730288996352394,-0.3529865871797529,-2.384977072089132,-4.300696769243434,2.0634560479962865,1.040703897557634,0.8616219598361372,0.8840193450980685,0.2819367805721662,-1.5105524714616312,0.05137598143096389,-2.97923182892846,-0.44615427456412277,-4.665181444394401,0.12947462208711713,-6.335417799653704,3.3654868022671653,-0.18680116736970231,0.504712437195116,-2.994237595634586,7.633753924728188,1.0489960328491952,-0.3170466757188354,0.24285106801065437,3.239876851187611,-1.060597821158722,2.263007542149361,-4.068910212003526,-5.347290714700625,-0.25160372213798343
6.25,1.1989508673929143,1.7311260798490191,-1.1218016519601357,1.2271935594588141,0.4028968567346587,-3.541034720163873,3.216873276345456,-6.2565820295647345,6.2700555915386325,-9.187214911201178,0.9344839122845808,-2.3973765718041022,0.25260841564743086,-2.334495395186419,0.7477818145813768,0.5848451317909444,-0.9776782623657527,-0.9791289635560334,-0.49838163786328815,1.0992628518988832,-0.3269396642428496,-0.46736502004435515,1.2711415383032314,-6.986514350234974,11.785180603784932,-10.6560625340178,-3.005189083323523,-0.7896295595594508,1.296841415492183,-1.0583393371293148,1.6504112457003126,-0.10698116278697567,4.655052440911037,1.1920087722206592,-1.1674369243076725,4.620470359448371,-1.9340911938972374,-23.047331821681105,-12.430461708216477,1.4171681875502773,-2.8542740693292603,-0.23401295242684306,-2.365164806026139,-3.0316995898799997,-1.1648310706346108,-3.03289111540249,-0.17957150662471433,-3.7039359114321897,-0.4478281744978698,-5.231486563435347,1.1700353442587612,-2.320702868973502,-1.0858638242824776,4.800679179198378,-0.09882144623217592,-1.6142356916539635,-2.6233176651831642,-5.23604809975498,9.995867073819724,1.9308589245217866,2.4002943038938573,-3.643837769754484,-1.829174723500275,-0.594099839149306
6.5,-1.7693536873209943,0.6659359022098996,1.3115633942214044,-8.306228554257872,-0.9849360127183326,7.603066402151447,-1.9284962013496951,16.8238188707691,-8.786479885011223,4.811992372168042,-1.0330725800036786,-0.7614952433439898,-1.7551003679977772,0.277139017439884,-2.395800936318792,-15.983694496302082,-12.641851445285724,-0.8298233089924564,-1.6814341302693392,0.30675599671062886,0.9505319420894666,-0.5189522979515484,3.241023042420588,3.4695336286784313,-1.678436172451296,-1.6686810916424544,1.1788629481921955,0.9620265938815079,0.722822641739437,0.3406196609871219,-3.818938757523737,-1.57404255565088,3.0609245485081154,1.5899307116733923,-4.553107454114574,-5.098456850672864,-3.6414468081081885,-0.8452279433193404,2.4018396226412344,0.07397370621628735,-3.1801396002137463,-3.428045251230926,-3.1109247317056434,-2.1912068910986826,-2.9865840809906694,-0.5088786385321531,-2.4606612024200336,-0.7475558581551112,-3.3502988485551914,-3.1949644663905583,-1.0555614335445214,-2.7662997755127083,-1.6597243952084493,-2.073404778943385,-7.803001528970615,-3.030400382733624,-2.227605985668568,-4.854712383742992,3.101749967954043,1.9097503123629882,-2.8506088484785392,-2.5668671852705716,-0.7192870047443394,-4.4936785422208025
6.75,5.7361557576667535,5.305655562462646,1.2425290219899014,-1.507532088703722,2.9208374331064775,3.024665123272581,7.191475728364445,2.8873260439756216,19.638292327759558,7.756968493839128,0.279813574841834,-1.994744734354082,-0.6528653554653633,-0.997712819080731,-1.1527692667275395,-0.6602976396717781,-2.5858503744705725,-0.4705429625223354,1.9818893588708841,3.2305775163254986,-1.787536718115673,1.6442318001224834,-4.623495660265617,6.076379970310113,-0.7448562919227015,9.713783015866174,-8.21649015333026,1.0449474909246999,-1.6478011466202678,-1.5110599687193007,-2.8498306807736173,7.886512965880334,-0.01581991172306596,1.306648986692296,6.401921011935881,-3.2836189903656625,-1.5454121315080664,15.566067042673115,3.4465119209874304,1.4455483573882546,-1.4158062378564993,-1.2254703767960309,-1.2229072289463068,-2.6993134364854736,-0.5596703225815967,-2.836146569380221,-1.1507880619553794,-3.018317194999356,-1.8821336239760194,0.24746031048438466,0.3423040750652719,-3.4180271734110175,0.13434880186808495,-8.952267005189348,-9.290363781517206,-1.308069837904622,-1.1030123058661019,9.73140251882169,8.482048841959152,14.904534366009434,-0.9959536292584299,6.205458890710515,12.765469752822934,6.442853242299866
7.0,3.067517998331943,-0.4880321226994519,-5.58031040215976,-9.04661120710287,0.9260166808088974,2.990226490558673,3.586218975821441,3.847282017891752,8.644800994342091,4.333325460749925,-10.420467370428169,1.111555554928322,-3.3478546466644326,2.3794533949206578,-8.012778400970307,-12.412815148977037,-6.996221452848713,-0.09816544630949892,-9.133069373230562,3.4569995741598003,-2.1378836806899413,5.119204124102793,-2.645878271240581,0.686429055693315,-7.514785131899374,3.2897515419037764,-19.48563072369744,1.690112798841675,-3.2285750748321096,2.915374325015205,-10.98763060275843,4.473000558897836,-4.99990267313434,0.6155083226871403,-0.447397452177027,-4.425145478553237,1.365409434037066,16.955617548996404,0.9043961351856944,0.17887690235705336,-1.7349248825494912,-3.634674786444373,-3.9103370338489594,-1.273778995973019,-3.0945965509521525,-1.8069324452099045,-6.003542958846699,-5.042099232263946,-9.02618052856123,-6.760773876486795,-9.453614199623143,-1.568167156403332,-2.71163404567275,-31.065556612532372,-9.800450178846848,-1.220429516567609,-1.7259476917996794,-3.658443792018736,7.527400302931208,6.38160639385374,-9.677940448181777,-5.808148475166688,1.4871586516569704,0.08823643096206757
7.25,3.081886243848051,-0.038494448683834115,7.4576811033940835,-17.97338357865531,-1.089758746205478,-0.7226972836255897,5.092127607217627,-13.32952011115476,-2.8103601358628403,-0.3869044995981657,-4.267353997339003,-0.8902156288642717,-1.731797838302238,0.6922267344155428,-3.5205411401108537,-18.24106424482622,-0.7783565877103729,-0.922552742756469,-4.266956503941875,1.5790876798953677,-1.886739973343475,3.3132353952261324,3.7567800926310255,6.804290883997892,8.00132668648734,4.075115142924056,-27.92469583395115,0.04972398827310423,-1.056152026887025,-0.8204501661741277,-3.9293960293020644,-4.92207436500288,-2.338218800545681,0.7204959562316546,0.5735444716482436,-7.61646216975781,8.282883108990966,6.9626042547920255,-12.146065293118598,0.27156617870708377,-3.4123131230892048,-5.127997293265895,-5.340595442550195,-5.0241988804932385,-4.7453833470221385,-5.996927714911647,-5.07091955052041,-7.364505645427218,-5.6852966802741065,-6.370718403520462,-3.4517036297780628,-5.638679133736269,-3.949070447902809,6.627930143544809,13.25575482758406,-4.407639231665221,-2.5434948104849724,-7.129623011606819,-4.552842284753102,2.6565269854749567,-3.9792771636907642,-3.3687781950794813,1.3461895154168002,0.5462624889030634
7.5,0.3339778564204338,1.2447720827793078,-8.305490946306715,-2.050500490101574,-2.2744797041116147,1.2737171214958027,1.1023074015301142,-4.236622614148143,-6.177783316172897,0.513557637084738,-2.7096760991461264,0.6314181685090812,0.5828021145589692,-1.1819019947882152,-1.105924335379215,0.8662561054473841,-10.28118457822592,1.9992446198818299,-0.6668885715485899,-4.739427450148733,-7.097256784986289,-6.189085542417457,-6.49022891541296,-0.7573550149515437,-2.2379554312489174,-6.333078666295461,-22.692746486587005,-4.116077892786328,-3.8087807090560855,-6.06524845499294,-0.26956642081689797,2.0726321676205073,-3.0480706417746584,-2.797268008220474,-3.4823888531572256,-3.8120046501804907,-10.30974483641776,21.953663014756383,-13.18783270549033,-4.100005145808181,2.0364186525517316,3.1975436322816853,2.5422501665920163,1.974232269368665,2.553006480047888,-0.590158372463102,1.2131728479325357,-0.7894452635475142,0.20860338124571554,-1.7934746816436427,4.2300362715509925,2.4635642398370043,5.774938262861276,-5.336565835667702,5.123581855732818,4.665418400419632,3.683632669699884,8.403843642407278,-0.04303073595299578,7.5614089832578095,1.548010612105017,-1.745230842178493,5.315844612261231,-3.4690478797537443
7.75,-0.23257340133339355,0.013756933677394168,-2.6211863435496063,-1.5552957369616065,-0.23589139622039623,-0.7003321604786135,0.8082066665875169,-1.4329561072313775,1.011847586044457,-1.4128579528663616,0.2554794826888195,-0.27137694215159036,0.15247458938345249,-0.3315987345656406,0.06125223867931373,0.09148976743288273,1.3633570504186874,0.024172252995109278,-0.7860443767457037,-0.20503578257220534,-0.09990130575300651,-0.32219360393857377,0.21131315296617093,-1.4276683851435643,1.454916808101463,-2.517879136122177,0.6664238283501458,-0.22081554010800197,-0.0010556287624669536,-0.2863334205625966,-0.7303576584672835,-0.47507552485027893,0.4794203710273377,-0.03731002193430499,-1.288238707138712,-0.3438068614822263,-0.24484587488756482,-1.0484851513059597,-0.05564065448629352,-0.16419323175076128,-0.4789497778684626,-0.24632691803491724,-0.3874670602790591,-0.29427838735634904,0.16842647910935815,-0.45276396218578174,0.12972685381826876,-0.6788338705673955,0.19259396143223562,-0.8417030475321012,0.028640025968541094,-0.3533311121828584,-0.1296317957202282,0.8432392913474824,0.7508433953700338,-0.16451353539403035,-0.017165227285604212,-1.1474796861047798,-0.6710880765581355,-1.5058410249779755,-0.30446525268465585,-0.9640954263960316,-1.1342203245201132,-1.2674047030395088
