Time (s),AF1,AF2,AF7,AF8,AFZ,C1,C2,C3,C4,C5,C6,CP1,CP2,CP3,CP4,CP5,CP6,CPZ,CZ,F1,F2,F3,F4,F5,F6,F7,F8,FC1,FC2,FC3,FC4,FC5,FC6,FCZ,FP1,FP2,FPZ,FT7,FT8,FZ,O1,O2,OZ,P1,P2,P3,P4,P5,P6,P7,P8,PO1,PO2,PO7,PO8,POZ,PZ,T7,T8,TP7,TP8,X,Y,nd
0.0,-1.492658227694488,-0.46396228885358154,-3.6472849934681575,-6.387175631942813,-1.0616448362228637,5.262128179783357,-1.2403431748823637,12.992798493867825,-2.4245193651750516,1.1991176780883381,2.310725898032479,0.5524491870023694,1.368356673522432,0.30870120382605326,1.8563281676363292,2.300720257270001,-4.537926765532426,0.8439930902446773,-1.4766652972057026,-0.23080315075584423,-0.24411219293142652,0.129735971678762,1.4085813415494381,1.9063543177356808,2.874436179687818,0.5447742977990511,-1.0061063957504768,-0.5820124123171883,0.26638185399822606,-0.08583616488457593,-0.4372456563386411,4.0863648692157675,1.3231714618172716,-0.07832583348399252,-1.335449285287174,-4.642197033466818,-3.6712382259113143,-3.9272487613132405,-0.7611587178456553,-0.39027666938231315,4.612379292704881,3.577437425887201,3.8924734190493884,2.443756575385419,2.725055159049366,2.816803449287938,3.190879846589853,3.5097962589671305,3.9080646633737,4.356929764894228,2.397868846234199,4.131206634618904,3.2050945002150923,1.7184745948339202,-3.148711199312722,3.604820429961074,2.0618935476418794,0.9953314579468586,3.4473287503981385,1.0979525660540916,3.125539024215934,-1.4630674383681188,-1.1900121358681388,-1.2588860069349834
0.00390625,-1.8015650947504844,-1.841170925996996,10.164298428441022,0.7711956471130292,-1.6034295003038237,5.748016577281931,-2.791310308894779,14.269294995188744,-0.7181693650754932,-1.6410593162050202,0.717024503894443,1.3540109940016205,0.7081486642318798,2.346995764003302,0.9835118557668772,0.9071052866043646,-5.4592604317958235,0.43022069051701967,0.03373066151649844,-0.5358661056973153,-1.2974800570110845,-0.6924309626272281,-0.04114252509315738,-1.2315785456930999,-5.301659043870932,12.898779040113425,-5.7567954824245,-0.6967497929602249,-0.770072297377838,-1.658883476959155,4.85787615524607,0.6985506696850099,1.8354797903390518,-0.4818051614910186,2.073917156342417,-1.9113878294977202,-1.9086256728504052,2.3120048289628197,-4.7113313740863605,-1.132777757046677,2.152914931648767,1.1630425069521182,1.9153256053311705,1.6220799457031827,1.2515600084803373,2.771144867031277,1.7409907996753684,3.6625364069379738,2.092553673604338,4.684455194997949,1.8328370138676855,2.454639058505967,2.4215134777273715,0.5424446308051556,-7.2035686660912965,1.8486174896892837,1.1910049503182107,-0.40986176161446153,3.318667419216521,1.5693622669152598,2.1971375161941364,-0.619562781910554,2.2944398125156775,1.9985013096722402
0.0078125,-1.148636934662805,-2.4731240839846125,22.123061268096826,7.410972006040542,-1.2785525058747456,6.660086478090502,-3.7611762083222047,16.19285026129132,0.8250202194431673,-1.413784806924798,0.40049182360801105,1.9089421765740997,0.45548948235399134,3.801232449562766,0.7605383281836898,-0.18942798002876488,-6.828486717748951,0.27073595298623815,2.93733286077872,-0.8603151563651829,-1.4661679026888335,-1.9370743111818267,-0.8701317120913767,-1.189076422418148,-10.500822193912704,24.35950998423232,-9.927875795323164,-1.1579337829342058,-0.9744334552430506,-3.1490555212336924,8.786414341945793,-0.5263650241134887,1.5837422599259223,-0.6457936708327898,6.751162995578724,0.8042219579772911,0.41362071941762174,9.4677230655514,-4.80457988935167,-1.3124349927095358,1.8523528460693475,0.7181341774053668,1.8544735365132663,1.5519056782420146,0.6911590379740373,3.2750672280556428,1.1922818979955245,4.592556488641103,1.5018752927516925,6.215651867919772,2.6396931542013413,2.1324391573085486,2.7032871096592572,-1.097087184167676,-11.01352102736832,1.5136328045778116,1.0927933923029658,0.1799396858525586,4.50970925269613,3.7113956670817414,2.755843454180326,1.5234100977522547,6.123843464711102,6.5820204761896735
0.01171875,0.8607085039420003,-1.8770946595981441,30.364878635568658,12.492088136099845,0.3136951918240077,7.910123731037607,-3.9875778694434576,18.55448814965491,1.6924730705996305,3.220369817374219,1.8011170596708788,2.0936291663817257,0.7901424908680079,4.330942741827231,1.4993238861480664,-0.578564408134034,-8.745200377781403,0.459553921346098,7.43183436180571,-1.0185195795623518,-0.48087369405872915,-3.3912029702164865,-0.9253970447110439,3.3128637594663584,-11.199036911963912,33.22671659888989,-13.127149823205128,-2.0083694426465244,-0.1065581747783062,-4.289522421498875,10.263140493339316,1.6849422055959453,0.38319977882186035,-0.4553614686472505,12.591708606771872,3.2431066417377634,3.356978189316877,16.71384839504025,0.5258732776245243,-0.6436530080042704,4.489480241360351,2.935240615298652,4.366113075939694,2.5466892011749755,1.4155784544759118,4.545580249761475,1.9505704850363683,6.5710857579639175,2.6603005692008894,9.236554908169614,5.255634715710883,3.6990350510297265,4.4055235273830675,-2.4185937011668885,-13.644936752807144,3.117556851531379,2.0024504409962365,3.46936055026394,7.324248080376429,7.72113480491335,5.375552724671151,5.322302875732858,10.195275938913209,12.428286963289612
0.015625,3.6686408763978178,-0.09576906107579594,33.6111099529241,14.950138529465482,2.8297704155473027,8.907698358937388,-3.776287365936364,20.318781786729257,1.410466185243209,10.997772238324492,4.190759754245069,1.9245170575219315,1.5315445304350483,3.8790150370794576,2.971643488695914,-0.36890391729018923,-10.768640248423566,0.841076015176108,12.14998350610406,-0.6557060898216611,1.1399609359201697,-4.147181031506793,-0.6099825405916287,10.873126489793279,-8.297728256551721,37.343307055727955,-14.830226928534074,-2.813219014493619,1.2983388379447676,-4.5416601563611465,9.36401333721706,7.055589879148403,-1.2285246382679649,0.030783707561482097,17.86663294665009,4.828075020002597,5.919495931272675,21.658337949621142,8.676472368491446,0.7259283968605655,8.994437076502603,6.799109309948793,8.4202532247607,4.2549887231471235,3.0033714560866436,6.2603024085819365,3.6669110980961177,9.119989449067393,5.047525485722245,12.81909353940679,8.664632063354816,6.545817224678849,6.886632598754664,-2.0019994597179966,-14.12628728268888,5.950068765606177,3.4383075238532186,8.384148509413974,10.795374782589711,12.170454213173954,9.294546282979562,9.869777226038325,13.69166228688208,17.79010479287409
0.01953125,6.006710743093912,2.2269634632687763,31.93702693619465,14.56728611699873,5.3121047721988575,9.11617949673535,-3.638679040230802,20.635380432310043,-0.05165300713124468,18.793474660770066,6.158745547708014,1.526746405315364,2.2314329034177653,2.665696097117195,4.510331504081261,-0.38834558078668685,-12.199523817445835,1.106852163461483,15.045753058847872,0.4299215713430261,2.501297673176039,-3.298724078260829,-0.47893922222778723,18.301625464339487,-4.564652304514295,35.674758380259924,-14.3696698643284,-2.9024204232879542,2.362169149160037,-3.404873791489276,7.465530704357598,13.691687003030143,-2.41982889561259,0.6292466610840073,20.418373034973143,4.948022786603364,6.605732383198614,22.286097092284464,14.352589274382298,2.2790822275078555,13.252406482483787,10.345907372263238,12.067065915722235,5.8886707752498895,4.5206094915418875,7.734029447511581,5.436375819097125,11.290191143818076,7.399418028224307,15.47623941289479,10.94452649345754,9.360775860240363,8.937838727678493,0.5015903139844375,-12.484649516693823,8.6017622511661,4.5616664310034984,12.797533793476875,13.335658802615756,15.264652847150174,12.76451711091055,13.513773019496075,15.429980581646976,20.430585392192295
0.0234375,6.64189796841031,4.081027708549046,26.85326538930506,12.23689566941785,6.648256424533203,8.629320939427696,-3.952350856066499,19.860366673490788,-2.241027257739518,23.430262581355507,6.5335675431241444,1.1009754879178313,2.433320987420343,1.188935338106171,5.355913495546496,-1.491857499506387,-12.6610870811671,1.010898375739712,14.763258110079033,1.9871514559739627,2.967595307128382,-0.7469713899404791,-0.7035468726632861,22.456400631097125,-2.8494605709439145,29.58015569649199,-11.400125846231267,-1.8593207170634323,2.543372664303667,-0.8920718947454833,6.34546664998464,18.759999755902516,-2.674047073643473,1.1437581292864687,19.228364056528108,3.3690269590375896,4.675115288002744,18.67559953868632,13.3942708064901,3.379779309556403,15.48576756225932,11.95492165046701,13.739975233535626,6.736535623899983,5.121138622654584,8.372903837431739,6.3089189603007165,12.266958023744223,8.431199009638322,16.211295596516877,10.49756558426955,10.968799250768209,9.57792712695183,3.43672475336637,-10.094770472427072,9.901562784091595,4.769732943082864,14.852458667596721,13.683155170451894,16.317108432638612,13.9026987350091,14.76193551911552,14.577215655016385,19.24783397062321
0.02734375,5.1855107969031655,4.600293086662253,20.47236000326926,9.247750887376327,6.153833947287208,8.140488261655133,-4.73632041232899,19.363632841377544,-4.554364881506689,23.436568078951133,5.089786010480983,0.8899205287125793,1.949330281310858,0.16036270132880875,5.066482373516153,-3.6825069341503553,-12.435809997883736,0.5526852041775606,11.509425860791406,3.3672504849997913,2.528485477367391,2.61831152811259,-0.9168561353712268,21.894071252578666,-4.275208451065654,22.41189739837357,-6.597978054467587,0.094877544614664,2.0041000307514945,2.2222893365040175,6.866275577897843,19.813540484663562,-2.117080102735108,1.459606350759851,15.119555616294388,0.46050486792341094,1.0022000836873661,12.933430661484579,6.041464902680233,3.594525599595671,15.239382865051347,11.262748799176794,13.159870060214981,6.615098740046609,4.565850293524292,8.097272917930006,5.8182671345561365,11.89328701661968,7.560034498929377,15.162354983431808,7.184958060532065,11.002519946694571,8.669487124808189,4.261395736248913,-8.777024281038038,9.593693939821556,4.084398258252762,14.001032678467443,11.538094443812518,16.142581080985583,11.659671779574994,13.04793990684625,11.30891849646887,15.051258640265036
0.03125,2.4213068927467916,3.579066384196042,14.489243356028325,6.335227700250307,4.000723977519168,8.251597118638369,-5.630531775828121,20.125117191473258,-6.499319517679667,19.711046821105715,2.5920414054060594,1.0994482875312415,0.9862153306328655,0.24148360269500194,3.7688360971175063,-6.004327225869414,-12.177407253919094,-0.00813302841851697,6.953626641524573,3.9598982535127663,1.6708791125940503,5.51947766366971,-0.6220636981938752,17.50195907636743,-7.715428763202628,17.56675896205826,-1.8976669773834383,2.136468391309307,1.3773411274577723,4.6782937089163905,8.425207972179015,16.233586512656395,-1.3943463975570614,1.5586124230720735,10.186077901206389,-2.940212028091221,-2.3469246507683286,7.6735272189009365,-3.152774292924066,2.923211067444681,13.41849154279286,9.190919611253866,11.306531692177892,5.951489719332072,3.3328932152802437,7.41061178020658,4.244459094769711,10.74894073390636,5.238962494731904,13.41643116328872,2.6077316807199895,10.008277875330435,6.972927354365782,1.7297495406894337,-9.424365900017536,8.34985222859355,3.087428394457792,11.223249522364082,7.713769988075752,16.12671449553217,6.541949854644855,9.072523135431208,6.995463754889836,10.012783595571113
0.03515625,-0.11718462818940158,1.6407504269736277,9.81768686866985,3.4866546145165827,1.222020798619083,8.807173827669125,-6.1146102458668405,21.614160091263646,-7.633160588713204,14.740366341523014,0.22994288026833604,1.7753138941232447,0.031562331395140863,1.630276767840486,2.1003329222130427,-7.171142387832765,-12.284813675579304,-0.3191706201075514,3.3458668845298196,3.6543444859783105,0.9480047819509971,7.121448252280165,0.2172346663954815,11.903522179647753,-10.865687369603393,16.489251396903608,0.26940262835921386,3.318516444999802,1.170438313898624,5.454663653272631,9.63132615443666,9.904052388794172,-1.2620621625919568,1.4683032097943114,6.528552306906855,-5.937622839814941,-3.6136228340506737,4.548752743520735,-8.766849353987961,1.799419247474265,11.520588971826125,7.216611738257914,9.615163991117058,5.449007474576543,2.26939848681402,7.039575221874653,2.463891512621297,9.733496750977123,2.7220272289552607,12.215780238147293,-0.7392145237435099,8.980507168633256,5.624939188299406,-2.971060581269641,-11.463596655181904,7.206661881542139,2.486363293801915,8.438439249902823,3.8820828682098014,16.901358839979608,0.7046492998398135,4.619462628917799,3.70066027398023,6.343790969865649
0.0390625,-1.0946035418657123,-0.11071595345489327,6.940352467420688,0.6167022602077841,-0.8079702521724406,9.008992057346488,-5.877345330851545,22.254269169029392,-7.5135791382598605,10.919063539315747,-1.1146304036386625,2.7254777503412355,-0.4460260882537816,3.807409039920816,0.8449892527214902,-6.366609859199891,-12.604117229981668,-0.16809246540348324,2.391766009008102,2.8990377012123263,0.62296989731884,7.3745463121633135,1.0175063771965527,7.992001751915181,-11.981172032251063,18.16716261566239,-1.5308849285113122,3.173858939574309,1.3469307600528222,4.463058880776487,9.474487996971071,4.4013241990767185,-2.163558779984566,1.2169674284653862,5.215885119457932,-7.990673489931303,-2.6833276896572524,3.8619141030448225,-8.375663161288346,0.8315754211077218,10.64617285627202,6.425178837986605,9.014514081961718,5.571756207762709,2.0240930360513127,7.394716735348205,1.4403972608224664,9.453326280039601,1.3507972062944955,12.169898012816518,-1.0103120753234558,8.65931103813297,5.377246433790171,-7.05838858395655,-13.52083402588494,6.858450113833445,2.629480493540604,7.484193857781665,1.9467818001975585,17.82029376649286,-2.905289311724909,1.8292565873230946,3.130164365798527,5.160613162135866
0.04296875,-0.22627428397994226,-0.7621284493709255,6.307353514283524,-1.7255792311186122,-1.181916887476689,8.264876340584358,-5.081400760778018,20.97946520417747,-6.0253238508142095,9.118182149738569,-1.2980491316408385,3.5831272024760747,-0.29833793677156184,5.738517300396592,0.455898697219624,-3.9165978612141035,-12.763093295744094,0.37520915167979374,4.428464133528779,2.2842989576047,0.6161566070684235,6.672441600905648,1.0697132154573161,7.344197653033373,-10.951118719542084,20.38814451904028,-6.551145446176876,2.007201673512343,1.4373673324484688,2.6494647763276955,7.930868521730327,2.8723026173102397,-3.967628109583207,0.8420547822990188,6.0151772383401,-9.068206286961392,-1.083132302349552,5.050924163402903,-3.678417526354745,0.4309065746572573,10.888431841572405,6.906746131611487,9.417978062581103,6.206980517603725,2.6265701528960936,8.247037751294734,1.6226202793663291,9.841444767879693,1.7233297204658142,12.985915231952792,1.7177195588917291,9.046564338081204,6.089981576081135,-8.127298050607912,-14.487722616738209,7.250129402470968,3.2945700687145747,9.145346354316949,3.119861052898203,17.639561487832427,-2.192636544885043,2.1178829893912923,5.580214272589835,6.163999095735462
0.046875,1.5813218092566568,-0.1264930915138575,8.207209239780916,-2.456314905805728,-0.023060358864615244,6.885355664837023,-4.2787917366054184,18.232305640355,-3.769660396911184,8.508734896320242,-0.8297800491305966,3.9976745854800413,0.2100890481030517,6.475229540578935,0.7775300933033519,-1.4682714298601138,-12.726488446079863,0.998510536095508,8.283677582340703,2.0311789545791377,0.6991177812470841,5.301521937278378,0.2464083766954298,9.41750736456888,-9.04974448269794,21.601295170050705,-12.022695382805438,0.6635401406574533,1.0329919852377767,1.331938603402934,5.712850977354628,5.897564511873757,-5.943392398359531,0.4255860459752159,7.830222263210048,-9.46323389295452,-0.6126416108136246,7.2276700041854305,1.610779897748607,0.5823486488342013,11.410209748757818,7.802143216524575,9.920882718332656,6.744460916072428,3.483790907579762,8.869778474075428,2.6345101701569944,10.261953322458188,3.2655667991087225,13.805808351124734,5.3835151946401245,9.447240187701784,6.843959010270576,-5.764414110414485,-14.123830894176967,7.684762642224198,3.87941872386061,12.687100042903358,7.105017925858055,15.724510775820075,2.579319453797619,5.287779635024015,9.621830598203491,8.125673732696978
0.05078125,2.9414098801477393,1.2294873514948395,12.2220971067394,-0.812005562211713,1.647665978955146,5.865053635697292,-4.012432540788775,15.529183599827844,-1.9038651757610003,7.727391105401344,-0.38408237910570453,3.8282800914883124,0.6048399331254259,5.735731418983187,1.1988796550843497,-1.091767272367587,-12.865286252191213,1.3479812596347904,11.912444077409107,1.8741470482609217,0.711750116208183,3.307470589567078,-0.7907196227530873,12.10758223744209,-7.762578091066682,21.86522591384452,-14.767647194266454,-0.05677330107026294,0.18575850199377875,1.2261622162105799,3.692292145839613,10.978737389747515,-7.016374260359413,0.09516055429536134,9.438470619828117,-9.4086867852122,-1.7912243016951015,9.332353065992102,4.79189549188972,0.9293459257748213,11.115432610213656,7.935845836883025,9.512791533388228,6.528563337979751,3.8071745787986893,8.560014585471258,3.5255252433219924,10.012873701745077,4.578153343159819,13.839908951227006,7.291311870912175,9.007994083410185,6.636389119084713,-1.7013442519614272,-12.97873961911797,7.3521537424110575,3.853771649390375,16.185482532869496,12.01261758929096,12.690181508951689,8.626519698074238,9.50827539009088,12.89940444973088,9.73409140259686
0.0546875,3.029667127799847,2.4386958041755924,16.894195477557982,2.8762514516084483,2.6731815430146497,5.954236693876325,-4.42926278762932,14.15950271689242,-1.4189480422596028,6.364388532617654,-0.26171273292789754,3.208840927954587,0.5697435468217383,4.04292080407787,1.1606858211785194,-3.532706403781788,-13.392419185749498,1.2653067892336085,13.494826454702597,1.4451423315932042,0.6269319584098867,0.8908144464182084,-1.161910280452118,13.375734144513773,-7.684681231496384,22.281643156241604,-13.23610394037647,0.08573048917941288,-0.6367180695641036,1.9315380072745787,2.53748397937188,14.253909896727295,-6.3000010176378645,-0.03376316671571429,10.099465604761964,-8.790752669468667,-3.478879373944498,10.179474293369879,5.487633874758,1.0963225025966081,9.480120389543679,6.645159013740695,7.826118961117106,5.371046854991151,3.1970079411367487,7.171430056299595,3.464578043748341,8.870503560889972,4.423212107477704,12.859916763722204,6.0115733190667,7.393448641772263,5.1765449249568505,1.5712452518405327,-11.817477326543209,5.938619776660845,3.1568640801230594,17.57127338599549,15.266916786114846,9.943316336524461,12.252597192972644,12.368948935786603,13.616383764377865,10.274512253301388
0.05859375,2.134965660255888,2.871925081967998,20.1079959007366,7.223871502012208,2.5461468154206695,6.940368777336235,-5.204223087549888,14.17706468499819,-2.4466071921263306,5.409371083978813,-0.2046486892115439,2.453748390930418,0.19843970015626802,2.3559205172007633,0.6235086582787579,-7.135084504428579,-13.84815866706903,0.8982502004121073,12.348185992242813,0.7634669376341988,0.4592398429749789,-1.19287840144166,-0.6414520472312402,12.764549766271772,-8.278422929739342,23.620541483647806,-8.54777816736718,0.6861734467768144,-0.9645781583647576,2.331086975799768,2.5774247156201495,13.283970797173673,-3.7253199410552837,0.06298504659609334,9.769687553109069,-7.223412509637329,-3.986569055174037,8.90179521243719,4.687144769256863,0.97457810723747,6.990383244439014,4.276520310748592,5.439494364112894,3.7478626520130787,1.9658120800011871,5.271699841202375,2.3757241409305383,7.281290448239881,2.658489738778304,11.274896522541065,2.4053333704737856,5.1218923531810026,3.1585904931303403,2.5896787788439393,-10.96568525792925,3.910292670993639,2.2530376113855564,15.827327352802433,14.983415986684147,8.567724577599446,11.238189578973682,12.371273285851851,11.653025865635442,9.816056171078078
0.0625,1.2790258990705814,2.3686291741703878,20.12773736506787,10.598578208362522,1.6017923678579462,7.824974075681362,-5.78247543171017,14.540619166438537,-4.093143447205838,6.187695727808309,0.26090727545770365,1.8847143724060018,-0.09001127501849304,1.5037947283414566,0.08987940211604878,-8.775892397355095,-13.330385459092485,0.5938848349472312,9.087961610188302,0.3195794074406645,0.16133703815520595,-1.8334346616859725,0.0020985168010964686,11.565102283731195,-8.543330869314321,25.414155641339047,-3.7989380615392787,1.0859775470139121,-0.7134426796280837,1.611842625269217,3.677868244355164,8.779709806239648,-0.3754279398538237,0.2832272921288803,8.890493646533862,-4.483254643997592,-2.647320581613522,5.80229002742481,3.111500562434805,0.7408142287265905,4.860362381934152,1.9947829531717747,3.5273562619283334,2.5123667899211743,0.9244238918565092,3.803270035627414,0.994325859923374,6.046942650556391,0.34964913390526814,9.802759548548707,-1.091744658144012,3.287617115512049,1.7527132652038993,1.6690715807256429,-10.17424936304019,2.2462109222587667,1.7880308400598606,11.5814583047848,10.862861637708143,8.516735096407146,6.234692453533449,9.792544278690272,8.466627492167108,8.900962576518339
0.06640625,1.275953641336565,1.1196098707573916,16.71031451029546,12.012114682432372,0.5580678832726313,7.711496629526654,-5.720290057950473,14.279446412893678,-4.9114948503481255,8.786542423878938,1.2134114670076235,1.6902816183555915,0.07616413995773585,1.7999205195002865,0.1373650848228031,-6.300591629493682,-11.300756547956851,0.6385785493215278,5.0182924193797485,0.647436324650206,-0.3419044167207423,-0.36949042224957557,-0.3953190763197433,11.468885656647291,-7.970176903545847,26.255157810867324,-2.099689398672492,0.9261692133223169,-0.2140279248158227,0.05784806353270355,5.192082564660201,3.9220772255143936,1.8774633118919382,0.45198523117160305,7.967082759907667,-0.9530024694985035,-0.3858900121394694,2.8691195820757533,0.6716077949750673,0.6339243332377023,4.193176288091886,1.001055092509327,3.0651761002806106,2.3125890163822826,0.7518138108118282,3.4771018247426557,0.2651541214616526,5.731115365862892,-1.0899449170914877,8.986268449201877,-2.3912511044173295,2.829388746522909,1.6904934257001407,0.3016657850999196,-9.163190725728752,1.7703482326914435,2.0841349339664688,6.695941266624342,4.0910422834915865,8.770418610486264,0.10122201809877523,6.321820384764978,5.909942497482122,8.04146927751613
0.0703125,2.1057175274915334,-0.5263422331035827,11.561474253308187,11.48457565320159,-0.07956707553482978,6.552204095272065,-4.9122522524646115,13.415427146862648,-3.8425549062286772,11.597397340387923,2.0315929534616957,1.874177116796448,0.6651128824425022,2.992622691045835,0.8601746012660304,-0.416103270353419,-8.187811715619274,1.030816484911944,1.3227220617835704,1.8073182601095121,-0.9811250064820513,2.707892843028871,-2.3057697427796935,12.903413388202873,-6.987438887319523,24.97351349033579,-4.616682259991794,0.43441807427230483,0.10843409699910554,-1.0907122010495893,6.2481359017442015,1.8738477172060235,1.4468074862167053,0.44948441248263316,7.2921833582536895,2.3873165037491413,1.2591233228832956,3.0283506579366435,-2.723351286748658,0.7426691682300762,5.17933530823306,1.6992195045025535,4.129760663187367,3.1358838322537252,1.4340255970190925,4.313911447688621,0.5651442193369105,6.251932042855796,-1.0317229351904418,8.876443229088068,-1.2825883182926108,3.8635974130449124,2.6920756598441904,0.06798924906564124,-8.14511339453654,2.555522344310942,2.8585989843193067,3.167561231954412,-3.3715490607732512,8.320510248178156,-4.189668833844216,3.8482233630675293,5.003830420646529,7.4459151069172655
0.07421875,3.1481859006022233,-2.1173027747396205,7.67216765425776,9.804506906875432,-0.207952560983178,5.087128333618335,-3.624992229643703,12.588710130808577,-1.119652356660154,12.617037278144416,1.8027386285663733,2.2779327621270937,1.2147295270195935,4.459519327047978,1.7235743208921914,5.672669617658411,-5.274225085802815,1.4608672421998259,-1.3080030958785662,3.302321369752647,-1.412405037917519,5.910024252626373,-4.887166958331054,14.603260282550016,-6.540899658585078,21.7050941026502,-9.803826398132315,0.22784595342081965,0.10342449127286726,-0.6442037405562967,6.330871832115314,3.5127444272473802,-1.7791884751721925,0.3290284991594745,7.021267282911052,4.543310301151158,1.7221663650105172,8.087949869061475,-6.185083861594461,1.0206651425809743,6.944009423220414,3.431170372441007,5.822561642445168,4.323949670817946,2.251502348783154,5.6465501681555095,1.4126396997189898,6.989162309937965,-0.05305534551614563,9.090190535144044,0.7135559708032168,5.590851564721124,3.730955192565793,1.8588677288543296,-7.589843039463345,3.8688427696359575,3.407162107182126,2.128835721228749,-9.355861856008659,7.203695934027404,-5.33070615061791,3.3817202314818435,5.642093870999704,7.170791514258231
0.078125,3.95000630024901,-3.106157785065362,7.677908712471496,8.013314499718144,0.1206787888648061,4.134972796514872,-2.3511225561396714,12.018775072849934,1.6611523314866885,11.379762050399428,0.21863110838630279,2.646840127701175,1.1856066750898497,5.485218249587424,1.9880708897612231,8.664826869485074,-3.931487408501912,1.5288985177247634,-2.5122243067312415,4.5106505742709135,-1.1315598652954124,7.778380715909347,-6.437930230747265,14.846885988291737,-7.157224789051116,18.032389583323777,-14.221279125004292,0.793878199881452,0.0013289384092466175,1.4981122313075819,5.6903460604321685,7.115770600154906,-6.045731824811159,0.3140105448209654,7.43008101903513,5.222257905093439,2.001562073624759,16.73122080391053,-7.922339888902579,1.4699576189641672,8.19017361508449,4.996478206394681,6.920295808059214,5.052959790963701,2.36863770106007,6.584714611787978,1.9282409363873072,7.316613720109333,0.722015050091596,9.196144579679633,1.949606092663442,6.875484593611773,3.933274615023485,5.474830021983915,-7.510484443925073,4.736480558833296,3.145866546276163,3.5573754403274296,-11.699049419393788,6.7407837868529175,-3.8651543690761088,4.804139408570081,7.237322959516105,7.456166868413091
0.08203125,4.6640817629726765,-3.0300176812332076,12.09358261605137,6.915617198543233,0.9476102856541151,3.964281276200682,-1.5572413187972776,11.280531189502256,2.6574121856030586,9.60598778671521,-1.8300320088758812,2.735732267384076,0.4233296051605583,5.538810089538167,1.3572572766841096,7.512611993735693,-4.679983013665348,1.0559841008127588,-2.0361060929978927,5.18797774699264,0.16574012419391687,7.936222652866545,-5.624992617364683,13.187037045805633,-8.301102821270305,16.089546509426793,-14.469277679617075,2.0643104237174223,0.19030675244062306,4.174000062127956,5.171218638290965,10.033074932114879,-8.639312797048632,0.6367375675695908,8.93172112489087,4.998922568337534,3.5418023403440295,24.479055264719136,-6.4756154090036855,2.2196268931432552,8.172143797988081,5.56526598767306,6.79295981401528,4.92582145128536,1.5661135886555255,6.6273552929399715,1.659085101172019,7.12439803824976,0.7505746055338745,9.13564167920985,2.169248910946033,7.082365528666879,3.35263727862401,9.511826711911466,-7.280156231972767,4.707476727894877,2.111138059151531,6.64907561479971,-8.644671666303783,8.669006944385817,-1.0350141914464879,7.341484124166573,9.419300207153176,8.760445866098156
0.0859375,5.683744635832649,-1.8380088518093476,18.63663932486287,6.700677056698442,2.2983377816889896,4.28526837234144,-1.4835237310873368,10.20129701950691,1.2243720306120405,9.764556242020731,-2.648331552125377,2.44725751851314,-0.6498691838174309,4.518357395373066,0.29243920575974847,3.753659984085824,-6.815021723237899,0.25561147095225034,0.0866064215301455,5.5342522750045084,2.2378650546710084,7.211568597634439,-2.4997129631847095,10.981307396202476,-8.645578698643455,17.206367510442483,-9.235803101404978,3.4173555719843747,0.8711018556127302,5.809965790938588,5.580169640277234,10.820037238517369,-7.638396041291502,1.323112621667007,11.632470302176275,4.6649529130927085,6.417191974925355,26.31452791460542,-2.0686851938868838,3.3389249776632592,7.259870504694695,5.272764742378446,5.885170391549341,4.245825944297096,0.49935820051969737,6.001710362172156,1.0413816733494325,6.913119188321453,0.6183262058360115,9.33194509427179,2.5286354492261687,6.538926762588462,2.945477089148022,11.817799733636878,-6.382235608338975,4.211329931078514,1.0143327737138907,10.334311807616213,0.12008895134531478,13.655528376517267,2.358368296596317,10.11915073783775,11.995658650184502,11.276767804181508
0.08984375,6.897088062468222,-0.04207117420665296,23.39857577892105,6.74349135706461,3.856113512983609,4.759353186734396,-2.1158992273331068,9.650086719566072,-1.7131351562940464,12.769969511119092,-1.0018132717766255,1.9316232803071585,-1.291532628414188,2.869989428245184,-0.29230722656898456,-0.08543063765845914,-9.03462464602405,-0.3815560975303585,3.0987098527585437,5.790054628374896,4.293151936182481,6.7078536489428515,1.522851574284445,10.158404094296008,-7.124035231928074,20.937459423918998,-0.37156004545485954,4.094740955505557,1.8755467446459655,5.578534501520654,7.092632148186731,10.116882589972086,-3.294041278125226,2.106258256090981,14.7623184974777,4.2904698567369035,8.702776393946126,20.36955737860598,3.16042735725916,4.565750853587387,6.65462093522091,5.034467247599632,5.373479863627336,3.7800829326670495,0.2310047308812301,5.489138464857438,1.0696823656069947,7.391033546729178,1.4825754557993145,10.364115513671358,4.185529965377464,6.260575231508875,3.748310952388504,10.751152007037865,-5.228643383005684,4.207866586968244,0.7621045219088104,13.546004983159756,12.32763730643789,20.257417497437757,6.043487112066638,12.34749396216779,14.355730459922007,14.310637009911755
0.09375,7.446830181776953,1.5719722909177771,23.383462712349953,5.8345427560354715,4.899422289284265,5.407754811017625,-3.24418554477861,10.987170370785254,-4.607609672657199,16.97105964373266,2.7130415112486763,1.5368577690101637,-0.9644274598505567,1.4308510887328705,0.27122930026041203,-2.3474371223365975,-10.48985585537532,-0.4223368717476177,5.47201726070619,5.830893485633444,5.422194039007152,6.6949969606911965,4.677112993491313,11.377872825270302,-3.9278892145080473,25.116606207107544,7.7512193954448785,3.70404103389735,2.7745758469414024,3.91218040601028,9.08604114325829,9.753335393559986,2.0244910961171074,2.5691407828563753,16.673931673062803,2.950644889691444,7.9312605987018205,9.769878975440019,6.425691801783532,5.304962011805982,7.466501084931473,5.748281029285053,6.2516648876742975,4.1836263935018305,1.3838933103106623,5.849016121126971,2.424336698839885,8.888035354157765,3.896706394126435,12.433900329240235,6.901161448513085,7.135104588054945,5.944420115328778,6.599195481162605,-4.934881224133552,5.385721581858125,1.7724294278568666,15.342283183160747,23.218867798590818,25.29241001619628,9.535712729581492,13.269846144666433,15.262398604228428,16.244157039094386
0.09765625,6.391374442298282,2.506415566967573,18.709865646444392,3.0404261262950847,4.750534427576992,6.4183198539877715,-4.468273778410435,14.459496107594408,-6.353619487090936,19.4377110880123,6.436114128253468,1.5825462300256017,0.26143582584109915,0.9688149576889405,1.8562340203227674,-3.039768779132229,-11.174591534866327,0.19852189545866425,5.658768310999097,5.23373221979643,5.186924473312926,6.38766232998913,5.992727765485066,13.370277319361394,-0.599038682620915,27.020029220527036,10.544337220468698,2.4482972277111217,3.159295099093579,2.0326916777535815,10.424934475797652,11.000583196027147,5.355064564843916,2.4283052276212134,15.766828994236914,-0.4106522616065155,3.4830773402969024,0.8780458280399879,6.199277824827782,5.019160994477975,9.846488550473326,7.528861062051801,8.533431776000711,5.486737846110493,3.5838598472481604,7.234639307626839,4.786621089827074,11.024351391250477,7.07535140861171,15.044193226764852,9.045423251325145,9.173362058090625,8.596281054002116,1.741975253972445,-6.233541760902061,7.529589335683226,3.603765092827627,15.203120501847273,27.636176317909772,25.69356281418818,11.65956755125049,12.298877180701428,13.63093601033939,15.45073678357771
0.1015625,3.708742230435316,2.880429716567999,12.694632814791486,-1.154215458742509,3.4004259549392484,7.6135552109776325,-5.246011078090852,18.29067969762128,-6.504877279829719,18.389865502560678,7.7367540562345045,2.101762162455737,1.7228165911282607,1.6777262563658046,3.564682517956346,-3.4108283759064943,-11.462220543523173,1.1210781251346826,3.227266896820736,3.7886779673109414,3.9037042423077857,4.848430476270371,5.66020399004292,14.129479289828561,0.9104669808733954,25.052559291800154,6.048716593673934,0.9669836660495511,2.8638881603647524,0.9966871058516741,10.016178337253331,13.448379616151326,5.0533120913086975,1.7443367796141973,11.81511209616613,-5.597201585208624,-2.363414667660466,-1.0050855628674353,3.2769715149144516,3.713734019841653,12.80016655024736,9.558334977018776,11.155220953733293,7.007140558678299,5.633250295817799,9.01383246025491,6.926172893946964,12.87422077935332,9.285477186020689,17.165003619466212,8.99774764478579,11.384818725357507,10.244646082229213,-1.1415981354949314,-8.843829905373891,9.550794495619598,5.193181793620599,13.469436287421532,23.18680273482496,20.72007325403887,11.094374533833708,9.45565132061817,9.733494611525947,11.64011392535781
0.10546875,0.6415476619355693,3.1784875742207364,9.491420818650901,-4.424799217536815,1.6801573546828175,8.370784914995678,-5.16315940701338,19.851333440525202,-5.044326134854062,14.55101366142538,5.51584332516294,2.780768022247803,2.573383756106061,3.0419321835150144,4.312049905635918,-4.8030634590116446,-11.63396116091003,1.7923443917086792,-0.6135111359862451,1.9325856085365722,2.3732949964480863,2.1619432687711466,4.440948974712187,12.829122807007755,-0.4909435624575823,19.929003157096304,-3.5206259274471936,-0.05347198599171778,1.9911611161889957,1.0649319117704268,7.432852253415641,15.344397246933346,1.7016981318647855,0.8908792729659799,6.566112293154424,-10.57313077212152,-5.944215917416562,4.66336477816118,0.09939259053062657,2.0531890193158544,14.779722069745398,10.62344034927007,12.627135392659579,7.761715435115999,6.280167988349371,10.140821969340578,7.5106337662703275,13.515501807819557,9.076761402759846,17.797958156825985,6.594465774976177,12.373186591018015,9.86673612866971,-1.5142576077237513,-11.943541769089943,10.16195116276048,5.536216335335289,11.412788934514094,12.1885494231866,12.82367248423827,7.556943777489725,5.696077486728731,5.547310783246412,6.4970308852364145
0.109375,-1.0731858705631134,3.6268694347290156,10.95086279725302,-3.793881639378948,0.7023813164562462,8.216595288274542,-4.300723918972023,18.02822353074636,-2.4679928702045406,10.281644085018316,0.8081805240094191,3.1904221322473374,2.298957350227983,4.250122153903616,3.54916082504011,-7.489520449125972,-11.904845017375887,1.8154581962810854,-3.7396303186352307,0.6026681216400465,1.2749259486696047,-0.28942576068706316,2.800246153998244,10.610625853700878,-4.3578541190991595,14.463255503907451,-12.912729796840319,-0.23695946940604407,0.7909406979482602,1.7850318753969374,3.3584360863479166,15.018073892253584,-2.5819726856105327,0.2981079315964439,2.8582200601973327,-12.504854104802632,-5.144520962977334,13.292060461963802,-1.1641099989390762,0.9357285512763851,14.603723018754755,9.895084211546585,11.949275559378094,7.100699714455667,5.007176363746792,9.842521941568577,6.011908254487721,12.593948413007773,6.35302263172589,16.557501637627567,3.277302788378282,11.226061808442717,7.456612835678563,-1.651710271294635,-14.88255156312613,8.694435189426875,4.313876929770927,10.508155035089633,0.5890108463726766,6.2322713734767685,2.466086468492844,2.6099974243346953,3.5724935761870555,2.837981203443494
0.11328125,-0.5108458448581267,3.8168496448919425,15.187031084845538,1.9236702010663838,0.9897947245668792,7.320449269179134,-3.2858451116632676,14.23417074659146,0.048271329318708915,7.4700399005112255,-3.9294006764865603,3.1330689364867794,1.0010147719515732,4.848372917057599,1.6069905379343754,-10.34943730904958,-12.450431228374086,1.1746913659189868,-4.651689241979528,0.5516449906331017,0.7433278091768921,-0.8164723293606185,0.6424087556741952,9.466032366884066,-9.028474694659561,11.892700648581103,-17.27563269087405,0.3426851017425771,-0.4534000056363532,2.528283552641559,-0.47347986966048117,12.198645834865964,-5.782492424929553,0.1670466657496069,2.7120333255218187,-9.861704217041048,-1.1753898686072068,18.33321036580727,-0.2089268799493196,0.8443619742426519,12.089423094285806,7.39094308494148,9.165490543669986,5.120447202585941,2.2899617737859868,8.13832714296959,3.0301557190673885,10.51677709058652,2.430111513887523,13.884446210707805,0.8665759292635824,8.07985591712259,3.875005380440623,-4.586064943575547,-17.14728641463767,5.4828800444807015,2.0315829157425123,11.244146912450615,-5.736755281801303,4.0780393109156,-1.701416843657965,1.5023390934624008,4.903418648545639,2.7085360276443957
0.1171875,1.712088405179375,3.0165118728771088,18.093086607334094,10.273819788323086,2.058389626729753,6.206154801726353,-2.8171596731256887,10.850168545596176,1.1922549449654312,6.231807769590595,-6.45962770761349,2.7877094833721294,-0.7106569671615273,5.0409900773857075,-0.5634117551583591,-11.835879516065686,-13.018639378621444,0.19785058584383353,-3.5867158570098274,1.7173725741455736,0.48853298064718687,1.1551104341319687,-2.1062228029082792,10.282998757772177,-12.589784033720546,13.728699143098677,-15.540514379300838,1.2767317949282742,-1.438519399264832,2.9498551830206576,-2.0234405010732632,8.21239135648409,-7.2234742011247635,0.3810882663362838,5.842412625150638,-3.889212746837916,2.4575783160655744,15.753396687092293,1.4011285100890458,1.5244652104103196,8.047835752089807,3.8694955338265338,5.231413589183391,2.564933196006793,-0.7969184917525656,5.8016828521420765,-0.1691197994006126,8.140497822912561,-0.9324250307878742,10.767434216882194,0.13241029148819028,3.9955282045598945,0.21110531490791934,-11.095303936790605,-17.982488270795617,1.5922095709958115,-0.38653619956193225,12.51054586859538,-4.734752879410745,6.257447659171713,-3.0072253174817494,2.5241787071530966,8.222187941300291,5.861417089949047
0.12109375,3.9333450411603414,0.9730530714887696,16.66001159651624,15.965756552820638,2.861151813571327,5.134212123212421,-3.0430434616912354,8.935447403794743,0.6262921809978523,5.503651220404937,-6.075091190815886,2.497221375768703,-2.116437100347681,5.320204620843477,-2.04241379421454,-11.441221819177464,-12.75194805806628,-0.6957429181586561,-2.2362885752115336,3.2510933010353362,0.3110754449382226,4.5281264720027705,-4.713991600488953,11.94643169814606,-13.776475456509235,18.636332417727772,-11.023237472862172,2.100339747633263,-1.8154969909660679,3.0795253663716013,-0.10739632959894166,4.996211061771625,-7.490779854282246,0.6791614172643107,9.853259774170814,1.9605425628044038,2.94024588525303,6.786358690352868,1.6997587848821538,2.276283841763296,3.7351285115134356,0.32857969408462456,1.3691661644905004,0.29682141428997255,-3.2831217540498963,3.7752453191310753,-2.5098786210437747,6.179805877440096,-2.7259865637297613,8.165247155329816,0.4103235268027861,0.26833374614331,-2.805453029471314,-18.589488984034922,-16.81161040993078,-1.8658789203462058,-2.2105569363351125,12.364018042002769,0.8095562704077548,9.808840762018256,-1.369732243265592,4.624953999490427,10.739638129750947,9.904247452803244
0.125,4.7709759301794925,-1.5055323067827395,11.43770650771517,14.519725439562054,2.737932119029336,4.0482971750236185,-3.4622001947207575,7.853279509583352,-0.6086173675231809,4.671725839631762,-3.6983805966473566,2.378479010319186,-2.802602373844336,5.754715049535362,-2.503977188061481,-10.087090565164484,-10.973755011205782,-1.2727657253510043,-2.27211308139366,4.228355748896405,0.47115319274338935,7.3716566134999395,-5.618420309747739,12.398900529152577,-12.331130826276539,23.264543881069468,-8.483692245859308,2.5673869716798543,-1.2650529091311424,3.1353383387586464,4.715131243698375,3.78608881955466,-7.31513234904354,0.9261520972467537,12.064819290998738,4.457970635718658,0.484964628719316,-2.788071112907042,-0.042621385167093614,2.613854837257974,0.16625086955198914,-2.502793592094497,-1.6008145028734428,-1.2660675550707383,-4.802822521781671,2.4874301686654707,-3.699512753481503,4.778388369805476,-3.1892025238230235,6.4969624396846175,0.45913576844934834,-2.334507282405758,-4.97882156521574,-22.99324934433934,-14.338341076911023,-4.331707345458792,-3.27536636069194,9.767842629873035,5.695953782776964,11.530381026130826,1.4603471063545588,6.456223245601618,10.432593887739976,12.107964836200345
0.12890625,4.197157627555283,-2.796782421416,6.172788886716781,6.275522631581295,2.055306107544352,3.0531616031190643,-3.504123262127157,6.885389712754561,-1.1228302903636167,4.422382555953899,-0.916651750844151,2.132063507478883,-2.830130715485081,5.67510912415471,-2.30054854038578,-9.00707868607251,-8.326192476431194,-1.5942005462198876,-3.91177101108388,4.419511157026244,1.4910645050488327,8.393846045077545,-3.4828067124026636,10.692387927133465,-8.85481959560936,24.56385994712275,-9.881294160204463,2.7483586213512696,0.27708997052198125,3.298876457936566,10.197043134111013,4.48921683727741,-6.580398486287295,1.2277640141726196,11.56389885328563,3.0549551646702526,-1.9786443860278364,-6.347653358994648,-2.762028680801672,2.705639298784706,-2.2865720310631783,-4.377810604037396,-3.5233238935095876,-2.3308941658941618,-5.595388743245818,1.6200012997248052,-4.170825987342635,3.5664383258565273,-3.3032122554970424,5.509214053889611,-0.3350571232351483,-3.8990966802905853,-6.444164328470032,-21.95561306930265,-12.715929746554673,-5.931686087597016,-3.892404005130342,5.809304613242457,6.238132614150157,10.582066822093564,3.274061701179148,7.50816963461335,7.729256913348564,11.491673507521137
0.1328125,3.5006397743121735,-1.4891440725648495,4.9710712537959045,-2.761773141662424,1.9679791686565895,2.577341190800862,-3.140830122241998,6.431146878513261,-0.5982890607913487,5.925480164355811,1.1502043853846047,1.2776121301313412,-2.5758264411365306,4.188293143311148,-2.055587896491521,-8.568774423308948,-6.711550516218235,-1.890340058538338,-5.7347180342789414,4.408359489751274,3.5332121028114036,7.727451222049982,1.4214453662123248,8.092652792755425,-4.463378070935097,21.95933300851003,-12.468326612785205,2.8772128807460358,2.393999062154814,3.5766122235489406,13.540360474890205,6.072583139374591,-4.447258966083195,1.7817697051849366,9.829649931020342,0.3227644665475827,-1.39273776396478,-0.7704174284944196,-4.384545380014442,3.1893703592469236,-3.828667115395191,-5.409380065810992,-4.691523322737871,-3.4090381278367947,-6.108096085463143,0.5170550516410907,-4.521822670355881,2.1421465480351913,-3.8048785876413564,4.582282307961325,-1.4748624237574397,-5.077014552349021,-7.378266939059091,-16.58068062088164,-13.925088436012025,-7.132888708280047,-4.452854864355833,3.114443278629856,2.7037087291614017,8.798197094966309,3.0644818106982665,8.489046007604621,5.192165013276415,9.52130697342129
0.13671875,4.190703328592826,2.5314433322027092,9.26585842191733,-4.711217267326754,3.4656743268599053,2.911985832205688,-2.85001050948759,7.322411404181702,-0.004470772558103506,9.237420867084673,2.315031081015584,-0.35199242613044635,-2.398500820591351,1.1430659208320884,-2.121286993734964,-8.362835480966272,-7.671161437264492,-2.3185459350184567,-5.896792383915445,4.941486107928723,5.96890809979437,6.420578737649806,6.800591818524197,7.144535585411151,-0.4669135138750896,17.74118595877386,-11.117737960224186,3.0633508162564578,4.2248513918320025,3.7532930480583677,13.0362134179875,7.460750805519198,-0.4972317214487718,2.6086204254798844,9.413099360844026,-0.1362861946339576,2.845154890806534,11.34749996315598,-3.2755169396421144,4.511259727228044,-4.851634444008498,-5.805067034916542,-5.425781257739585,-4.782080743357557,-6.575191828445318,-1.1258787861919983,-4.97490307797084,0.5449801262760365,-4.580978351282301,3.246148532920113,-1.8953327577338523,-6.451154867376014,-7.866295268415457,-10.292414728709597,-17.797381008744935,-8.248635418328279,-5.078880512302368,3.7235227826216377,-1.3938080378530429,8.525073585396738,1.6882726207102277,10.568566209687537,5.414936981437348,8.840305110652526
0.140625,6.731513313449337,7.782540775871412,16.84330393249239,4.135289019879516,6.468724294451548,3.7995177407567424,-3.0608594128046334,9.51148430297517,-0.4976501333944593,12.637459426861138,2.974923381672141,-2.3111325790336257,-2.396315978989498,-2.379123665202511,-2.3441003691860973,-7.940086916149498,-10.836313914820565,-2.814165933987476,-3.712233171344626,6.129896259883604,7.645464788723121,5.29890459628349,9.566131638929606,9.478306490572635,1.9569764715644498,15.296271783610337,-3.120011508999798,3.136304549126364,4.892072335006624,3.4733463687881385,9.201692944921199,8.17548130446683,4.222272005727584,3.4295356245856143,11.728846965875448,3.293944620500729,8.432412103602669,23.07992226926879,0.5829076755907041,6.391537320659074,-5.556637200260592,-5.710287168839009,-5.820402947938524,-6.223050592834802,-6.906654240920818,-2.9235477491182777,-5.296904946650413,-0.7359676776586248,-4.919085745260048,1.5316288103899496,-0.9605737696443368,-8.05881365321066,-7.96068322099343,-6.0559996246124115,-21.852280624102487,-9.20183693494727,-5.590364074950459,7.205538964617901,-2.304391024982359,10.103485547711927,1.0376641329071057,14.105852176301104,8.838536653504669,11.02699163313062
0.14453125,10.105927943665085,11.98724026092137,23.40485446088854,19.75478593055871,9.722182013051729,4.65822024034342,-3.7559941164493313,11.947791670683605,-2.3130892713714326,13.710036350156383,3.4536271789848536,-3.770813319583809,-2.427445215169776,-4.662619661663605,-2.3064010732010356,-6.996462777934138,-14.18757660899349,-3.162571077727687,-0.28245190522374675,7.292445221780862,7.728299756427537,4.41700393459387,7.999806805808456,14.293199665239317,2.1862014117646984,16.449670879706623,8.695977840962275,2.819076364262653,4.100134220258745,2.518613943648231,4.580258298122107,8.385234499137894,7.397780290679348,3.839435829976851,15.752477731688622,8.757858263188544,12.05820297038538,27.371551507634685,5.376988850398745,7.938554938844609,-5.8790990497669835,-5.263049834432394,-5.824918864451755,-7.22009908500504,-6.924643980329487,-4.15179876593198,-5.186074758750594,-1.2708495178067911,-4.329400470040833,-0.09579375572329724,0.921772230468079,-9.43008785585592,-7.814482333581016,-4.52276855901982,-23.256978982527578,-9.707021124298896,-5.771393657871969,10.778040617064327,1.1191478452766734,11.445286587322487,2.403842129120417,17.99013447308055,13.254445493683242,15.174538450903594
0.1484375,12.545535853908529,13.478883081173151,25.295549651304892,32.584367927294224,11.62564002613693,5.1114005511746115,-4.570042356929285,13.54799103358644,-4.631195101483589,11.295796355967866,3.6569957213330677,-4.141454094957568,-2.3407816694095884,-4.677477735876629,-1.8048224247116667,-5.28253679136276,-15.809931868840438,-3.218999125324721,2.3363303829135713,7.630424322921115,6.423969167899851,3.5935261033793577,3.1951338004728385,18.846642628521835,0.5505346425185235,19.964748351500504,17.46579711021991,2.115236838224102,2.4402224042658505,1.1788985273318877,2.162326131429053,8.601084003779079,6.987595251716548,3.655448429108542,18.705761850749713,12.257735160085986,11.960118036191933,21.42830424145485,8.444701214066992,8.362530736961954,-5.724247398209836,-4.736081914215681,-5.505716346479687,-7.491980253240955,-6.683483442906144,-4.480918016777554,-4.721062941131253,-1.248475574766935,-3.1682370003455858,-1.1390133265795082,2.488723841491038,-10.071807585150488,-7.739197499006543,-4.477866564887533,-21.06330764687219,-9.661211573773222,-5.669984626140911,11.516528459948818,6.815154831653212,10.146627975193553,5.334926643663799,20.256296593746114,15.400089519116609,18.46649307714
0.15234375,12.861537322008264,12.237605789057886,21.540800129349144,34.23389924002269,11.396079738916717,5.187715394573287,-5.149052979808823,13.963972503015759,-6.2644623708235425,6.592709248123802,3.259204485688617,-3.556041978769824,-2.1908719801022736,-2.986623594421026,-1.1331802191621487,-3.0567298273246393,-15.316052891467077,-3.066490434061347,2.7432767564298546,7.101784660524804,4.930600941906761,3.281478630958437,-1.486552290246758,20.50544008829639,-1.6528313454267485,22.472607478736826,17.45383711488893,1.5174542045361468,1.0793599986768783,0.3477400839663792,3.3870657856315662,9.376499418547887,2.9450940661998706,3.1396083387310036,18.230708450449896,10.804188286657585,9.10553333644614,8.528573438786935,8.033852704065696,7.681207285563425,-5.2390235576661475,-4.539183636819702,-5.172914942745612,-7.300230845108048,-6.546061113990756,-4.375829859344316,-4.429521884919703,-1.4863387763231275,-2.488124215687154,-1.4434182632016483,2.433180301996689,-9.949945008308589,-8.0893781030442,-4.629654333366389,-16.78031036857723,-9.348888716713937,-5.634555953089051,8.843105479086471,11.313991691464283,6.117017131439487,7.882380073328297,19.56753368945144,13.423483666910212,18.355686533984333
0.15625,11.348230872110948,9.822256693496058,14.21459287416807,23.67206016855282,9.667884588784876,5.141357172812636,-5.389568361203886,13.595338041677373,-6.507695556896229,2.435398805207617,2.1402620226234355,-2.76065098036316,-2.2342733887597706,-1.3469232491712226,-0.9205094322307125,-1.5289983281376158,-13.812767651346489,-2.9602122982266503,1.3044220054018127,6.611105841655262,4.594901344915935,4.579406374227106,-2.682218648319735,18.615652841526735,-2.777430785536998,21.241447419235733,8.6910307951011,1.7295245072956702,0.9887535195339182,1.0202857558087595,7.16073542041873,11.070273038701568,-2.353356520916973,2.863124750394753,14.361615832282713,4.902146535283526,6.2429185274962915,-3.8848167185295086,4.700604606605219,6.775283452728879,-4.813609946670619,-4.986728078081837,-5.197578262179807,-7.234424410336935,-6.9167022141053796,-4.71069407680836,-4.891770380724527,-2.746128588647493,-3.2283009509144134,-1.2065686529508004,0.3009222338641142,-9.526998942195386,-8.998878888868585,-4.754876692883103,-13.030166030504681,-9.23977106938154,-6.015183246710487,5.121789769389063,12.347979751980482,2.1347864607594014,8.034742515834724,16.391223537997554,8.369067272671957,14.670935701445414
0.16015625,9.547890227836504,8.236962910806977,7.307574027393541,8.026628500692619,8.033193565352327,5.216915902471458,-5.394385451846331,13.1211037488585,-5.587346848684512,1.3436455244130898,0.6323327322220731,-2.4799843366392094,-2.7023920566547117,-1.243252185327739,-1.6560638993768826,-2.1431491251203587,-12.7835781957251,-3.1009327711544943,-0.09457029539107295,7.228009784479111,5.914434659962633,8.080173251364652,0.6365625313976291,14.737147611902312,-1.8481207070381336,16.642482205161087,-2.7685871277322036,3.0404521754887583,2.263838842254245,3.3948043183462886,10.705891042358349,13.53998894192648,-5.512244512428374,3.2653232345095753,9.732656567411592,-1.5920522494316374,5.7678500761510945,-8.68406842398898,1.1276548276789682,6.689629172484172,-4.775419179149857,-5.994640370159979,-5.661889863584671,-7.639166698139927,-7.851900161373047,-5.891164458241449,-6.220980256561043,-4.891695318432855,-5.4331919585754616,-0.6420082789074105,-3.0908579701091172,-9.319075976781502,-10.157735512069376,-5.325572237256444,-11.580768188590818,-9.548920802707471,-6.776089586705041,3.7580621446850317,10.297302511875781,1.634046313235375,5.231939199857316,12.883783173942383,3.6018268865782135,9.9823691807817
0.1640625,9.03407169915906,8.527380839223445,4.796549262424718,-2.650181467068339,7.835958800541765,5.479122439246606,-5.262350454416234,12.863077614302709,-4.414406850114023,3.8783531949088896,-0.6299742645779168,-2.8084475706655203,-3.5497656498803805,-2.606390285232922,-3.278302236420667,-5.02539642702795,-12.881074797309475,-3.4356538087216655,0.526205653884587,9.078783534044428,8.146521972448882,12.628828493264939,6.483244399876612,11.270676755835273,0.7171516525553323,12.220709940268335,-9.21652388372528,4.89390996395157,4.047854608331294,6.344116488158174,11.63918923555966,15.86224842382225,-4.412552086162738,4.243186525537077,7.7975390825913715,-4.131122938558078,8.1083508247687,-3.4114952476242353,0.2002259053712185,7.7314452541639005,-5.064191970525883,-7.006228043024893,-6.186936363405596,-8.215111065747424,-8.902633867480054,-7.307205083917845,-7.877525399947855,-6.694888533043621,-8.148875180328972,0.324135694853664,-6.029053446401982,-9.391098113168752,-10.880128301129261,-6.558438951553052,-12.310794627063435,-9.97563123679959,-7.400665609752086,6.353944680546771,7.574264629097084,5.624497415169647,0.8243695740080501,11.496930336012966,2.5746468548605863,7.861643331067037
0.16796875,10.145923575245618,10.099678088739811,8.641141928504636,-2.5285690825877034,9.136401152282811,5.74634412555185,-4.977671946784473,12.489485304531701,-3.83610763656976,8.444951366590704,-1.105858368368387,-3.1646149734418767,-4.4102527544249766,-3.877145657832327,-5.136640248046138,-8.329510197381115,-13.49862122838077,-3.668994425034833,3.6923788379291524,10.9572061638965,9.805204088658513,15.463522566965151,11.272824203230089,9.769270507777456,3.3309551293847317,12.074016268672208,-6.798716685646635,6.1233935752048705,5.123110091608078,7.932133390343436,9.63377505230779,16.496959522714896,0.31624741559831554,5.1366294275540145,10.347686148597115,-0.6263677349793025,11.702037063976968,8.195714215251062,2.729751356382727,9.126227389617599,-5.231410942107534,-7.297568578688608,-6.162505242151871,-8.206657702104005,-9.365663374636398,-7.706737515558814,-8.992215253283447,-6.62586698340122,-10.063951266638506,1.9526061599053355,-6.922342860361148,-9.278079070996782,-10.526644885894536,-8.235175833324156,-13.79350396417579,-9.897567286997614,-7.249418805554917,11.307585355968204,6.596560805469632,11.528255264264784,-2.833809150907369,13.315411491311899,6.466903139808653,10.283201513800545
0.171875,11.67997066272935,11.246380262314421,17.48864987616788,6.426769784745946,10.66290920838209,5.780358875353132,-4.523957634346319,11.593575374280285,-4.024236434388221,12.469349168151902,-0.6804958997580427,-2.8464033371309165,-4.8207598348025265,-3.4052791920903456,-6.351836630966396,-9.497446203703856,-13.477198750192153,-3.4940924512160247,7.951465304257053,11.139622980842642,9.66856964103005,14.063441053471177,12.218377223608584,10.229896259846289,4.372857756487264,17.479263573439884,2.0417819164696205,5.76752013829094,4.7423180510133225,6.78107812765739,6.375712899206032,14.15534817610408,5.764697302147546,5.1812218609730785,16.150821882590627,7.202752554787427,14.30216032640235,18.66773597638327,6.739657910500726,9.560929053035082,-4.811624218775593,-6.48384707221777,-5.239470293218435,-7.065479897332618,-8.782211625097583,-6.251899303166619,-8.950841439002579,-4.101646331273746,-10.368125803694902,4.228131765576915,-5.330157740229842,-8.42815142887903,-9.005183092341447,-10.238623298872882,-14.80826400592359,-8.888919683911094,-6.10693110800729,15.026026151369852,7.908296023166381,15.072866734479227,-3.9567495976745866,17.33827936177471,13.278661967376614,16.096321165311032
0.17578125,11.818296093744312,10.48796609909062,26.953411833335718,16.86113146393432,10.80568410963893,5.607299942069541,-4.034085641188314,10.55514589918495,-4.472328962338931,13.963715263652654,0.28143957611241227,-1.6921621094627521,-4.540799121458266,-0.9623857310880639,-6.331844648971545,-7.425419646279371,-12.354337203767365,-2.8584380739044977,10.781362511047888,8.812424802035828,7.583260405373236,8.320321042154017,8.990401893367675,11.610989599655527,3.409761717164191,25.526871662734244,10.73887834929358,3.8309983677682,3.10847983837257,3.2148668680280994,4.022658494577387,8.942848976254039,8.776235789662234,4.10179543917247,21.713011961052572,15.103076606214984,14.464448017845713,21.91762912811302,8.992705703425624,8.21384822809381,-3.7456267660387357,-4.831223816292306,-3.665618039430778,-5.019244138326428,-7.29990122004903,-3.3543387249921337,-7.792043318407369,-0.16642421527661622,-9.186440866552555,6.50172436155124,-2.263245010254157,-6.771696144041259,-6.919128414782344,-12.620925152025048,-15.266589161181829,-7.123845057880848,-4.430939030118834,14.72188512465767,9.787226130794437,13.702935768314923,-2.428572731810739,21.182582122108784,19.005293424072168,21.727064172920862
0.1796875,9.591228720992664,7.726354434387465,31.841649957187705,22.003424987141123,8.880049179094506,5.5123427351512335,-3.7152549451951256,10.315941670944097,-4.469405377220744,12.508632264744673,1.1695753121450232,-0.265822016834254,-3.7162519338576,1.9714831043589398,-5.111642949352724,-3.5079507755086676,-10.910573328094156,-2.0383122925377117,10.298233630028298,4.899693384430795,4.5396151938777844,1.0735966692840597,3.630589405018436,12.810509503352007,1.4914703451996996,31.066909283646627,13.371924669854769,1.347446959823926,1.1852512090693865,-0.847364258285185,3.610302111093487,2.7974874851893703,8.001868319866063,2.368837990105605,23.627834428868525,19.096377539471796,12.23267607474148,17.56545027263734,7.5099165036812305,5.45181588360702,-2.467006792094658,-3.098881869838737,-2.1430558050364765,-3.0168837327854563,-5.599234302471713,-0.5222511479635541,-6.140893150017915,3.057448300513263,-7.342017300806307,7.690605049445835,0.5076113695858859,-4.892411649393074,-5.181513237226559,-14.927025244149247,-15.755358581000777,-5.3033481650390835,-3.0524166737991747,10.499590771187286,9.60115241689804,8.649091791573984,0.28945550773435924,22.641445133812965,20.174508493145254,23.622370154922233
0.18359375,5.732192175625773,4.340099385584835,29.38111265810469,20.2917701523044,5.679574527470608,5.639167327260077,-3.5996181853633327,11.08356742208344,-3.596767280510165,9.286163838555037,1.4922952325714505,0.5862038346090757,-2.7722735908303004,3.3946978502695866,-3.3111672169500235,-0.5873470798811646,-10.386306547384713,-1.451861706341302,6.538071260687362,1.5239350713716437,2.0147256845359736,-3.6907428476678077,-0.9707050508135686,13.233527836747074,0.22083935313836492,30.56115376874403,8.42049790384882,-0.32820149729731646,0.014749574083141669,-3.225137818554018,4.6777998355205845,-1.4346073457473916,4.507967927351611,0.8953860234061276,20.84994407639451,17.816609937184342,8.858860965863874,11.033005900223644,3.0266400200649226,2.6303083451995883,-1.5719116106751458,-2.020450444902256,-1.30900924954553,-2.0541400118175774,-4.430700281385537,0.7099757457564868,-4.7701374721038015,3.8208050568397205,-5.728277829563087,6.990056690753123,1.6291943034887004,-3.6333245389477153,-4.384301663789742,-15.977568613552048,-16.472637547686347,-4.154904780732324,-2.569904311018493,5.129461340501174,5.957453986260585,3.939931537332218,2.2813375192813723,20.99671202869438,16.108686158222334,20.671423961294806
0.1875,2.2503399519567364,2.162212580491434,21.293229396118313,15.363955438841446,2.9147547035369286,5.726356103976281,-3.4485752559535072,11.675796909238608,-1.9596567605216422,6.335259357491205,1.1467938709538954,0.40682284405541064,-2.134073564631433,2.400468292631902,-1.757438420128029,-0.742151369290579,-11.138293112254178,-1.3625733795308428,1.3792186102389092,0.4884538185964027,1.0627769998548942,-3.6427792636207323,-2.8396487197999027,12.749610949247337,0.34818523598013784,24.73775697782323,-0.8145187545413672,-0.4276564673892835,0.058889131955610255,-2.9327400091117934,6.105015812166659,-1.8255887412182334,0.6548144677125025,0.40804945459059394,15.311126126160186,12.947242532319564,6.009798159100253,8.8756966162499,-1.6822698837166523,1.1537541427987121,-1.3773001600141028,-1.844183849948418,-1.2973305302216025,-2.4334560633317626,-4.131100422339248,-0.0925993034195833,-4.136204472668977,1.9930130454806996,-4.805707739310375,4.522245170298386,0.917856939025552,-3.477360742375159,-4.4510439847406005,-14.818112325838992,-16.832520870001225,-3.9341352782469006,-2.9566760259924165,1.853676311627379,0.07827579846727062,3.1977986437053763,2.4624099878896235,17.291560458686433,9.366719978204667,14.88307551813609
0.19140625,1.0432583331000895,2.1432755846657185,12.836645517123866,12.16712621159185,2.001051901758638,5.334221844569745,-2.9825470118773856,10.533392021855526,-0.12762764792624431,5.408353591765845,0.4204705019462863,-0.544339206605152,-1.9847236175662535,-0.1411372463671769,-1.0297945689038084,-3.744368639042872,-12.118040793680114,-1.7155837717231428,-2.835741620630592,2.010357045986007,1.7604494538901334,0.3551675276366475,-1.8086935817805865,11.454596319575902,1.0983800224060425,17.837135959315237,-8.789812934060375,0.8289390168201985,1.0158857732758713,-0.5892269198052427,7.136768841757017,1.2931760664147038,-1.7313768191118988,0.9840428872281414,10.495151805680685,7.757837936543078,4.938118048569045,12.905949559609885,-3.9270702166874756,1.534150034723128,-1.7627746555223223,-2.29354229376266,-1.7639911493853826,-3.5776177174233417,-4.494003818176797,-1.9944193298081598,-4.201473478053057,-0.8864516284590188,-4.539139974121735,1.3199202456162613,-0.8532713544194814,-4.227365001989881,-4.850650981197514,-11.726312281582686,-16.01206852119487,-4.344437242871981,-3.691899433051187,2.0680684321545204,-4.729941795081375,6.827981313459488,1.1196322103320717,13.54076353629675,3.9672383164985745,9.892832011137674
0.1953125,2.5985689637856,3.72767761248117,9.096276535750444,12.862632014551435,3.123841985913436,4.295126497625363,-2.2098839827782886,7.411421700201025,1.1453330799556347,6.903359414536077,-0.27274291787886484,-1.5431452959214922,-2.2151731502836767,-2.3280560504422447,-1.2129278485874715,-7.384311877683443,-11.756156359201754,-2.227401259366575,-4.938274774868351,4.704679132004984,3.3279601808726396,5.181012800002002,0.8131363426118241,9.623546052565626,0.8466199566818238,14.090633135436699,-11.151157987289693,2.573987656478442,2.1715678395416713,2.377284940135377,7.712218451182198,5.617730565361815,-2.4564857357222953,2.088945773581944,9.02781337454061,4.928554045028134,5.875725576944286,18.310313287824208,-2.9825774476388713,3.1509141746162785,-2.4002544106858346,-2.930290285773754,-2.3129206161084435,-4.534930754281245,-5.045581507660737,-3.4654665072546003,-4.602035493089106,-2.7936389585421892,-4.682083841481855,-1.3971179049266786,-2.81476001018338,-5.224809057327445,-5.13202060430027,-7.990108106555525,-13.771530895642641,-4.892983964592045,-4.2459611498571395,4.616598864694111,-5.329756994029259,11.789695590969105,-0.5968406821666288,11.485640031943245,2.556005570019768,8.429417162938957
0.19921875,5.731768123343005,5.390719277107403,11.229298378137297,15.784908047633024,5.240077141552511,2.941233972612631,-1.492112105498494,4.020400673135326,1.3214007734999684,9.466873956964697,-0.7040233898519768,-1.966837277277041,-2.5658157246793607,-2.687044875974597,-1.9686573649266847,-9.387378165162804,-9.478779941278066,-2.6263073389430707,-5.568609075172433,6.744990216361044,4.764380642500374,7.951201266597393,3.3251792857383755,7.7872070756904614,-1.4021922804561948,14.435850714305088,-6.9027659160295265,3.986986592899751,2.9502678801867037,4.829490876494398,8.104979178753766,8.606563595467374,-2.607962697590652,3.033601187860163,10.998029176854935,5.102606863071703,7.875360380435498,17.9172487385885,-0.36413628491003625,4.825611546966792,-3.0915801740313458,-3.5493235677763098,-2.8750131152023695,-4.722691775605618,-5.431203928171429,-3.547714167652832,-4.967439698287384,-2.7059716045763733,-5.060363724643994,-3.042397618977676,-4.644576542842449,-5.877610374634264,-5.254391243028072,-4.8670172107093626,-10.860923005294582,-5.308877649674662,-4.456610876101548,7.005178343189381,-1.1816761274379295,14.005314194861821,-1.7278582430853962,11.659265453054951,4.5706979102153324,10.564743539665944
0.203125,8.4933156152094,5.8758505154234655,15.794954600954984,17.73646339036048,6.9352149830415435,1.9093405509977512,-1.255616998634116,2.824046457857201,0.40771247963326324,10.734427809525759,-0.9142198492334114,-1.6987792917263949,-2.8197449322646744,-1.1593728448815392,-2.807262240634079,-9.246043413344871,-6.391451690744445,-2.822355134536819,-6.302964120666754,7.180993716383463,5.50766336555007,7.945344549192193,4.675614378307719,6.617136481667313,-4.985112589686221,16.225424898761865,1.5340834727109973,4.733413697793386,3.235576693568235,6.340168043703394,8.46528840515764,9.25521486415269,-3.2335889832943554,3.456925243195106,14.157675552875958,6.948597112135721,9.353622968575195,9.135914229899575,1.6158914839737233,5.695593901853698,-3.846407848789556,-4.231714055240781,-3.65130531112599,-4.281545006625716,-5.573115550843101,-2.481725934947749,-5.125342645259572,-1.238287708315182,-5.5965293128094595,-3.859199908604108,-6.419466469074583,-6.032246340284316,-5.4189455205939545,-2.9516167791570966,-8.622007192789813,-5.633458882589986,-4.489505159994197,7.384454200316026,4.961837738996421,11.430329936050626,-2.1978776850027506,13.265072680641314,6.8656784959097585,13.943904682067966
0.20703125,9.518087658262374,5.150392982080311,17.902745557752958,17.140459870210414,7.434765627001287,1.6563536042906157,-1.6126841479962242,4.8440922055444435,-1.0162098812940354,8.992715332015079,-1.0001132408109408,-1.1056023568147635,-2.8914613725718468,1.0389785112460044,-3.3344764090851053,-8.223620505521888,-4.3596887820713945,-2.8787940545986115,-7.978041441822632,6.381190120557793,5.672928914967919,6.503670120256208,4.868875364450782,6.543431963824174,-7.886569046472763,16.028107437085396,9.940102774658524,4.877956443276307,3.279415501540907,6.818007606099074,8.68725777471153,8.486416568826716,-4.238466700093387,3.473719171884857,15.776735874418751,8.486674615789507,9.232261091281988,-2.8621504562233078,1.8605737126317217,5.706032797587717,-4.633588065728906,-5.029967036238768,-4.679437234968639,-3.792236114060581,-5.5272490063853175,-1.355344337099706,-5.0631360412930455,0.0144275791619232,-6.119804550785173,-4.3536280776981755,-7.94270457181081,-5.902906385874693,-5.626817982631609,-2.2544346654427456,-7.929383882721635,-5.94695014247778,-4.505329259733806,5.768053445295168,8.883296781519427,5.4402155806941215,-2.573305624910508,14.891466322218943,6.421077505367506,15.728812311085733
0.2109375,8.83918733184118,4.352020841009191,15.576608163300632,15.25647298985759,7.02707134253349,2.1201642516288697,-2.231501946968242,8.536144591970533,-2.1046801087570906,4.6505702371500846,-0.8434860865034012,-0.6928977689910161,-2.7756780625319726,2.3819072391567264,-3.338906902314715,-7.663742094853929,-4.350340518726542,-2.861010442510463,-9.63111309166651,5.406876704676373,5.771839239341756,5.319810368724209,4.644802913466471,7.411076459011494,-8.141750855963599,12.93132507385841,14.5527417079957,4.530231037143109,3.368092738381553,6.062927189478902,8.555712377873567,7.941111737247964,-4.408821127887431,3.4379820756942987,14.739117366984672,8.664563151307295,7.907649792901023,-9.063486399249093,1.4354892904032206,5.424754966357133,-5.115031900395747,-5.63439844901773,-5.49269914419408,-3.676421691616982,-5.262985648203703,-1.1445167736853308,-4.749401966111948,-0.1620440123645547,-6.230408307221873,-4.567574527328549,-8.381604099172264,-5.6880930325126915,-5.477764128341664,-2.569032608414666,-8.505715882869712,-6.067050297774815,-4.424071918788147,3.727318315040992,8.07526026405576,-0.3742744032711705,-3.1607841361431595,15.588991533731924,3.0202217411743337,14.757048935168864
0.21484375,7.664546665378026,4.802912534702199,11.499808654991625,14.700317962471479,6.663489094694227,2.868842915736902,-2.5710397584594027,11.069051325456734,-2.1770695200843972,0.20851038668690325,-0.123783375579914,-0.7522263066698059,-2.464744550469928,2.0053163871141604,-2.762901531235382,-7.599034548650943,-5.746388284783207,-2.7478084591817153,-9.058181443607396,5.009548338650928,6.19703867761715,4.869495714295438,4.773952128531659,8.52144473976736,-5.215989267443221,9.412841191310399,13.898904658855027,3.6809724027290605,3.5659257035732597,3.908574895177986,7.948137198537718,8.309149540400895,-2.4961215026626733,3.581306843701868,12.309809322931104,8.068316992856644,7.077169346188368,-4.371132629001024,2.5507394269881742,5.447269542524072,-4.729643322234475,-5.421235636096612,-5.305417819067483,-3.8466625825719927,-4.635063502953531,-1.961042504577071,-4.045485466003956,-1.6511300655303782,-5.443223700775752,-3.9644914591435656,-6.760367124047791,-5.289629603439711,-4.484804213649401,-3.8778223867549944,-9.540734340233598,-5.586777364322929,-4.034450776059632,2.973178895765853,3.818849606815905,-2.91503566890309,-3.3713454409410044,15.55980669398982,-0.3667974389257529,12.306312171558597
0.21875,7.379431540562747,6.886792766102645,10.515263394547762,16.876402585517912,7.124846072810994,3.508365934589755,-2.2892876184607722,10.78972060649184,-1.0614259148740244,-1.5408059549809079,1.315550592128739,-1.2344258163045667,-1.9582339206370458,0.08605054478341764,-1.685556315860296,-7.083786862138943,-7.2347274448009005,-2.4975247797667173,-4.682279688289682,5.131352338314065,6.893981945226688,4.356009758297623,5.481532001042549,9.066247141609965,-0.31935517389388335,9.08736317838514,9.41063299753977,2.393164775212345,3.7207737980558995,0.7921740951884197,6.984050916987633,8.674226776008592,1.5666772252617895,3.8418689352184243,11.01037650373681,8.26607118354305,8.277364015483073,7.840767820296704,6.298916345082677,5.922501330222648,-3.1622676192575616,-3.946285078044082,-3.671759841884423,-3.889092396153884,-3.5922231393981496,-3.075033688440491,-2.8406596233143695,-3.198260225053768,-3.5724677269756575,-2.0898503843925424,-2.9713432835750533,-4.434201284876502,-2.6398733381545783,-6.480781372690384,-10.85045873062318,-4.275576955761049,-3.311845436235349,3.9534756333706627,0.3463324672060878,-1.6810611689304313,-2.0946243545765273,15.896530149263107,0.015923408053740602,10.931175336291851
0.22265625,8.523532306726501,9.667427187114752,15.054236049884539,20.63181003806946,8.407163143308185,3.835106451099454,-1.480464770503764,8.27017004540214,0.7717873127424955,0.24064783276360135,3.086504982644581,-1.8584759536763724,-1.3533732368579283,-2.4148528331726244,-0.35955856046297097,-5.588640014727706,-8.076167871555663,-2.173064912714572,2.7531811743297814,5.21477181538172,7.449205151327312,2.9866076518147424,6.3577599852407305,8.63191500114164,4.467599813999712,13.389679808495412,4.488896629778033,1.0610717022653424,3.661150533530203,-2.0321348316262715,6.070123871113861,7.425191507403932,6.325430841357322,3.9867739572459144,12.477777283932854,10.268431822964109,11.26839141412743,18.51984146040089,11.132284128223969,6.52785114530542,-0.8173753873629319,-1.5029968529838635,-1.0635619106977905,-3.547147021480903,-2.399407152782995,-3.6047978467557162,-1.2983862912919635,-3.528658811298876,-1.0565738889255603,0.649150332968006,1.6553603235096863,-3.0828385169316075,-0.6600976492208575,-10.379707543080324,-12.906671174635068,-2.473794650512199,-2.5798133672862633,5.488588904947864,1.5144024319100073,1.206484252365192,1.1230300464408636,17.47652788003397,5.3904762594203275,12.296546984012636
0.2265625,10.423904182784856,11.529403692358402,22.5853258034941,23.14092824015252,9.740172431304712,3.692345089911525,-0.5560755318628737,5.12973856942507,2.391869143591635,3.6957072901313444,4.312174966396217,-2.3100188655662484,-0.8768078176899257,-4.328051650118393,0.8011164232781534,-3.822088071626098,-8.383287190932734,-1.9545576381130483,10.158260652084616,4.883306929261516,7.463469399305472,1.1476983851725644,6.747391350861735,7.43638205838058,7.46065794701669,20.0932907885668,2.3923084632315628,0.3325512703955256,3.374139170102141,-3.133434533112214,5.728353743080228,3.921866277828213,9.6248140733544,3.8625697870289577,15.972380747103577,13.307644354283703,13.802742433757041,20.39568068294843,13.649625625623433,6.80433339441917,1.1799668336311753,0.7884455738525886,1.2077844725535383,-3.0147605680023237,-1.5971990843907342,-3.245622871700284,0.06122631583096157,-2.4319501256364098,1.1114198359168483,2.9379515675653702,4.908104809543353,-1.7004905363886373,0.40400251898870176,-14.341187780228775,-15.65647788288791,-1.0534595429548084,-2.304651051255415,5.699012004746679,7.5255208933272675,2.872947934198648,5.181464948987588,19.85446661900849,12.995987661640584,15.687399099576545
0.23046875,11.668417582165784,11.325220291642736,27.39577191548878,22.080758440131675,10.150895687046361,2.965888172400057,0.06743581659491564,2.44647696383905,2.8920983681142434,5.831842864611666,4.200755448123841,-2.3930779425401485,-0.7587681634070379,-4.843791502107381,1.3933395964403674,-3.150015079320047,-8.508570958319984,-1.9920172366128712,13.951154502557472,4.302780414164582,6.857055923016558,0.2471779289736712,6.277971716399556,6.181264802171576,8.07758773647587,24.85785057175993,4.0861513060646395,0.6454344783614466,3.013889983608289,-1.9742108593249672,6.201618996935657,-0.5621348366478984,9.950237787597796,3.5243508583720105,18.723707414716166,15.003482489728118,13.210758751337629,13.323576306282927,11.241939207842348,6.508362416169111,1.588569245165384,1.5705360121650633,1.7749748143933242,-2.762968666776577,-1.649112731165634,-2.445445498630347,0.6132752743586869,-0.9115531043503257,1.9168484442005844,3.4310066972072866,5.086086964488549,-1.0604880337348517,-0.07421127402887519,-16.061206128888216,-17.845764027618664,-0.8786201833957397,-2.6900590597628184,3.5444086841496887,14.37760299510112,1.901781455828985,7.806266441329126,21.15757352096186,17.852590230274785,18.361186133311534
0.234375,11.04607097521026,9.144108216016944,25.15188171797287,17.234730602816743,9.11573290241944,1.85054185033218,0.18386214435899895,0.5155803327545916,1.918437584046138,5.105506345192323,2.6941071530340817,-2.0909130858836127,-1.0290595786196617,-3.86884594643568,1.2909409400383796,-4.250552445571929,-8.5832338386336,-2.2362036999959605,12.457076379962432,3.929063840888611,5.8627579218246595,1.3614363295960719,5.120861031748266,5.6211972141991735,6.67312132671859,24.39557128896513,7.449180315691683,1.7870049776556471,2.759649199458153,0.5787456761045533,7.141202713946881,-3.5200349231089714,7.2861582471059965,3.146658128831807,17.89551799038654,12.96489730429808,8.557923417859554,3.158396940861968,4.327665517519398,5.712217844173042,-0.11599571658198676,0.1568051131253692,0.14475984313595125,-3.0800032917939273,-2.542121112636788,-1.9470947364904605,0.07552796616287144,-0.2948196274361512,0.9958570217623005,1.8337414995281949,2.1530653241846176,-1.6862248838178682,-1.8124697475800187,-13.93232544732178,-17.87329859719431,-2.159884200940717,-3.4569123729871603,-0.19559329922992447,16.63368265128715,-0.7572307075783484,7.103790262979753,19.28215551418993,16.399764584369557,17.507277423550583
0.23828125,8.320574827880115,6.151779583610591,16.290628706120902,10.364277655026028,6.850343018690167,0.9406020190456563,-0.1642268492247504,-0.4815408871385769,-0.09127738378287115,2.7194356377768183,0.59862509405455,-1.5477333879964816,-1.4345746927475422,-2.0481965248686027,0.7669884071652777,-6.425899591683383,-8.581015532251577,-2.4289066764289298,7.015000516697924,3.9634696361976767,4.780315175699494,4.01785114197757,3.823475355368201,6.074197670442874,3.9735524289607222,18.651572312196016,8.56823039848597,2.9485251185044463,2.664850492219741,2.8585350318192373,7.770776860010282,-3.0538203822039534,2.942298681913413,2.8414413696344933,12.697447667481116,6.688718426127433,1.53225858404839,-3.960028608971248,-3.8179994083461084,4.6556046506438165,-3.2910599824148994,-2.9226249558204382,-2.9271291651236844,-3.7633720928954126,-3.7074835015486807,-2.138116776470648,-1.2180431395290543,-1.078695157130396,-1.0646465567797403,-0.7792511742554579,-2.2716698071367603,-3.382987868425923,-3.8183112964845014,-8.769961972247408,-15.22305544345425,-4.231923221415416,-4.028669230786166,-3.315041800374607,11.443324112775068,-2.713455578608544,3.0614329534937434,13.589104874732607,9.08147454344409,12.351012170689176
0.2421875,4.371680508231059,3.6956274237957736,5.4960388141916585,3.730407133658323,4.1091996257530345,0.8327309750519581,-0.7424277661936187,-0.23659791570759198,-2.1219957099562947,1.4380318854811607,-0.9719295927596853,-0.9879209473934225,-1.597060562775709,-0.4103904621959039,0.30052570849561794,-8.268749517709026,-8.449983281618238,-2.28803652171075,0.9666456051722081,4.092487107972927,3.772111677348195,6.342396804888712,2.8984368658799307,7.160073312729133,0.7742515677327387,10.47681190489128,4.482683251090981,3.3110762341106845,2.6276989501230874,3.640885741113762,7.502346729222824,0.6203801502042008,-1.3562850403147844,2.579923782751713,5.060022571747127,-1.7430105130548625,-4.672554434081032,-6.204844210324335,-9.420030056974959,3.5528176568387906,-6.413413865731144,-6.177974299005892,-5.8819951005864475,-4.243473849227704,-4.382861111501775,-2.75429334805008,-2.4919260693920493,-2.50002395401744,-3.0787850376857797,-2.720728755593312,-6.041449002821643,-5.264408447778622,-5.07748503779034,-3.496904426680006,-11.020517413231953,-5.952225468765238,-3.962729993884499,-3.7332532065442883,0.7315883988830807,-2.033853592469546,-2.2989290842525483,5.745804587570513,-0.12826161361906935,4.831850584832144
0.24609375,0.6745224908908013,2.4173745339884265,-1.9670191781339872,-1.3182927765633745,1.7253955746876244,1.6105988770185602,-1.2539284385628306,1.3297834608218957,-3.1426624050825205,3.030620196722551,-1.3925108438838851,-0.6024951294442956,-1.3083144885365416,0.21737832144041178,0.18872552961656158,-8.899179055079012,-8.077974981351593,-1.7367365237073042,-2.6233262527296413,3.7777534874132552,2.8806665673194756,6.530825788657003,2.5158062397493195,8.010853245607379,-1.9488979580934853,3.438842712166752,-4.409383450158323,2.676562156864249,2.497686387642249,2.9494707081386973,6.442140996430711,5.299740657104449,-4.3346165576964815,2.28225447791972,-1.5972861866185042,-8.793478745164013,-7.488311610495278,-5.760358568896677,-10.588653949564005,2.535790162529156,-7.916908353183633,-8.038281246537672,-7.274785408215601,-4.021503660544948,-4.142742739056588,-3.1384341486610143,-3.0507641654172657,-3.1832870682142977,-4.034958228804566,-2.8901955964304102,-7.785996736227563,-6.276283360640582,-5.139228099549832,-0.9513808497501153,-7.362093293915601,-6.414787443730911,-3.250379497993156,-1.0309406111360229,-10.054549774269855,1.3646814053576701,-6.283044658054348,-1.0728154231367009,-6.6749748232307775,-1.629649849102655
0.25,-1.5139189157834205,2.035138997075016,-3.784217791672658,-4.553300280593138,0.23877368175066177,2.755117545430877,-1.4993498470718207,3.7714878991889327,-2.6432384708480168,6.718523649384628,-0.8870953670065187,-0.462140620753983,-0.7082410413983323,-0.3209117410589915,0.3130023271052695,-8.535807416125664,-7.32589838435241,-0.978830467819284,-2.755155129134115,2.8110380549163017,2.1769486552557673,4.364411478597447,2.501986420015476,7.918417041993422,-3.0009137128012027,-0.30407279195851894,-14.055505374132398,1.576007178643969,2.214532962731086,1.772464968969843,5.251369549835987,8.493878821515858,-5.451103966728626,1.9548256019292325,-4.54964535097045,-11.620881671354454,-6.420213493713678,-4.9932636374380515,-7.8454948474457415,1.7255415866870236,-7.018736342444676,-7.712646097554381,-6.519720358029871,-3.04297606726145,-3.1597829556198884,-2.791532573502421,-2.7275550058980547,-2.2936733600353323,-3.7039746104068167,-1.4371208490510687,-7.4201658686897565,-5.824131367787176,-4.179771400085294,-1.9054237752818837,-6.014046735278307,-5.441181891980976,-2.250894874340627,3.2591813216464125,-15.557471548716226,5.772921861111279,-7.288463998249016,-4.133578393599767,-8.33047679396996,-4.338272802968001
0.25390625,-1.765164386064215,1.8482655749783037,-1.3276251352665331,-5.989362169995909,-0.2133739830461287,3.5090012527793175,-1.4290375428569537,6.098712470687757,-0.7959274881234109,9.969186362687406,-0.17890036172180096,-0.5094446368931531,-0.17284562953102273,-1.482492371655904,0.30061867912751733,-8.060339528983263,-6.196621481847329,-0.35483581778185325,-0.6091021919423285,1.5869244192118004,1.8069701854028595,1.4237870037335176,2.5603921136351593,6.958322760025619,-1.525201086464749,-0.6482162732137398,-18.99825640447105,0.7566161356341214,1.8539073653975056,1.0497647684700278,4.4922293246753915,9.249217032034664,-4.704401710633917,1.711338464135164,-3.33016684829913,-9.667481598279846,-2.92885206267446,-3.577076930743924,-2.9222798423728533,1.2785934818568405,-4.044403944854238,-5.480485419011655,-4.040380863342297,-1.7134185515692677,-1.998419654474093,-1.7502612912789475,-1.8953532672753481,-0.21845559022014022,-2.6288952178197693,0.5604086992770644,-5.692967078183987,-4.062911467312533,-2.6547699287144013,-4.871604440388995,-7.281162689033573,-3.5411498243646005,-1.3692338367852988,6.846604739924547,-13.729861993236835,8.968793484783248,-5.5938322680935855,-2.828315099830173,-5.900133963317755,-2.9065918898693366
0.2578125,-0.5737549110637432,1.4252070059333146,2.3114748023247533,-5.111612156656824,0.179469401271281,3.3522441941383585,-1.0790634748779624,7.031093630124905,1.697815818971039,10.699943142612229,0.19497929528662503,-0.6236604928218651,0.0007539603940431988,-2.457095407643116,-0.052909970897759236,-8.152185001888519,-4.921409704234488,-0.0986965535549103,1.7407890763857954,0.8092796530046631,1.8397208362969493,-0.20620994242820712,2.4685765132804107,5.980835009278342,2.0276595355587697,1.2062845679280967,-15.821024064593555,0.5260863059993163,1.5458046115160247,0.8981727529777779,4.158934431286291,8.510089904234697,-2.443624608933332,1.6475574579138514,0.30447851853250163,-4.654129775013904,0.7840265581578142,0.5690309781536129,2.530434926387278,1.2977104111422868,-0.16546019524623912,-2.353267575356134,-0.881426754688592,-0.5820305541468253,-1.1583057055455979,-0.5173755731178931,-1.0784532699579057,1.7610815382405018,-1.5708189475690375,1.9888866745184755,-3.4323264571785237,-1.717387374404414,-0.9793121295076844,-7.459261289814782,-9.790671003504634,-1.4880025828579058,-0.7953687342823998,8.353014199855679,-6.5302403323274945,9.632816691110653,-2.7360205758314025,1.1129188712017224,-1.707796760121623,0.8115722388196265
0.26171875,1.0361349456798306,0.8714427979369838,4.791690561172773,-1.2573973539869652,1.0090513953363893,2.3443398407483307,-0.5662390784023313,5.7638420905877465,3.788859909106556,8.734188181540711,0.26293396497169746,-0.695519113828807,-0.16908979554202944,-2.7080086721060805,-0.5147434547344121,-8.73508581186299,-3.8805218001075743,-0.19232705725197752,2.7588904090452897,0.8792175204017947,2.08073580297724,0.3581940389173861,2.1066792245616535,5.827299619686591,5.478424075759103,3.821815969022566,-5.506751154236468,0.5533444860878497,1.351246816057765,0.711662948875686,3.882418649691165,7.75538119267513,0.5692512120766204,1.7056370801465222,3.7596129751585163,0.7364737312867673,3.0025091842630287,7.889474451072021,7.1658894276187555,1.6751323458780616,3.1721816800854534,0.5147193706480913,1.833659972918912,0.021297626229984674,-0.778765315105518,0.3408620594896746,-0.5505386331582434,2.4812728012896637,-0.931263444536856,2.367663273519179,-1.2069061292037644,0.34812444650112767,0.49944991139973915,-8.041516920426428,-11.519731166152777,0.09239112996800176,-0.5103751888077837,8.05373531676039,1.917363358291944,7.888061021092671,-0.23557640615224718,4.924800967006844,2.3394929782714926,4.184214084590341
0.265625,2.0965636384558373,0.5463397030505184,5.53893116680166,5.072208082032219,1.7562396220066536,1.1908142070530068,-0.17790566784173623,2.9843545208308386,4.339432879468357,5.349972780912199,0.404393487788363,-0.654840456355524,-0.40232880105270985,-2.198457916145627,-0.5931273125456406,-9.136418572000004,-3.4687822757456956,-0.42451360370443036,2.01746582528541,1.514631528356883,2.1088222468018993,2.11511126454943,1.39994352395037,6.415086593263952,5.912342053233705,6.068963271434154,6.925573689258669,0.2768968550633184,1.217826760589138,-0.09362691112446467,3.5294760229322115,7.282615326973403,3.1053105477920737,1.683961653483122,5.228628542994603,4.324982384251614,3.060869727077717,15.20442715008103,9.542742085872089,2.054195846279473,4.791812051730091,2.257309778622675,3.2678595493720053,0.11706777108534358,-0.7147799474533725,0.577053117608166,-0.26571486318080634,1.7312506284761044,-0.6248419243255485,1.8670585014408507,0.5148448926640603,1.5022467710126177,1.3891304685341064,-6.671680073343953,-11.380433380603703,0.8611903767887014,-0.46764600925157973,7.144696796441584,7.96937159851875,4.788453276704062,1.2118961195398918,6.561216542208404,5.400332860584339,5.473565370114237
0.26953125,2.131924407833214,0.6079357620224037,5.17480410157522,11.414794983700022,1.965177087984857,0.8504446184375919,-0.3123214849914312,0.8906988607126072,2.7348914900642285,1.7933405046500925,0.8394970596836433,-0.4519431461199051,-0.4374883333772652,-1.1893722759522947,-0.02235935301377373,-8.787728949174085,-3.9333747879554553,-0.5843924580975495,-0.09571693522039434,1.94859156568862,1.5864765160781014,3.053877564239153,0.3459047047452026,6.627277224053994,1.7851513102030712,7.223004217874626,15.316680108305924,-0.5010739100072704,1.0554509438010127,-1.4654385390617666,3.476137989971016,5.8809813535152795,3.843931805047421,1.3995779599283809,4.503721746936458,5.130992760322467,1.2823994638040959,17.491106448206917,8.298020565562199,2.013785225588423,4.147803946691495,2.455006582613567,3.0197890984982663,-0.06834351070324275,-0.818534131756271,0.35026784564852587,-0.09786791222340879,0.27168583186478107,-0.4023725471361451,0.9067979818354288,1.2112473764890226,1.5165966357243805,1.3178328092219045,-4.772933383802674,-9.921617883825466,0.7064395954141984,-0.6952971563494408,6.337670196789148,10.080671558333641,1.4143339483946118,1.6386743982115386,5.6626919614108004,7.025859568518156,4.59770657417827
0.2734375,1.2563913266753763,0.8370647538695521,4.532077985365072,14.363834782446872,1.4678619080144135,1.7496457928410143,-1.1091515296484766,1.4204697686786647,-0.38448377857834626,-1.4964868006073786,1.3563712312260865,-0.04611654158914592,-0.26183855152827257,0.09832130879372578,0.9176151111781723,-7.764542877822522,-5.13485309353596,-0.6106872209439252,-2.850291437593196,1.5406899067069093,0.5818848914937451,1.8257407680538855,-0.8640014231475456,5.277909202135633,-5.456628371445821,7.133140426223576,15.887630936544426,-1.4077128575764237,0.8559807891542774,-2.7739493562640023,4.213759475931203,2.286360141467973,2.1687563307814015,0.8521256650915807,2.6623287070897077,3.2956514946121027,-1.3664696822871916,12.030861275137587,3.19938091861921,1.365949488635227,1.5105726864853353,1.167217165847246,1.2047766799428845,-0.33386420184289206,-1.0897854689548911,0.01720592312308202,-0.06172745929105648,-0.8741435118478416,-0.20786540530734554,-0.1645852470506335,0.5589926561406703,0.572277274487543,0.24258686297287035,-3.831928800230753,-8.399251029628031,-0.28876785152669804,-1.1988311909539455,5.164687993580362,8.777371436633823,-1.6119995095837345,1.2765801716140739,3.2765906596018937,6.529161457831437,2.7035143153037815
0.27734375,-0.03825138225665216,0.8362946356939298,4.172813213207535,12.06781290239708,0.4932606507683901,3.23477098889733,-2.0952150163621925,4.121506783135491,-3.147541285730209,-4.3085533583062325,1.512607736000962,0.5529210983645101,-0.07723837585556745,1.5691057158269273,1.5921821037671378,-6.553714405572022,-6.393984081920685,-0.576696099555765,-5.355079188414072,0.2815303296999513,-0.43391429686924227,-1.1743603281358999,-1.8273241303759493,2.33532471100175,-11.879218517778524,6.53111163016947,9.101714721350696,-1.8556120267774951,0.7282203556175745,-3.388925418330864,5.693100801300733,-3.0173476043533722,-1.2152042147935163,0.23475789842128003,1.0876740766917976,-0.2088194585197605,-3.6926206545987688,1.1636180610824003,-3.952457963614727,0.3180168884054974,-2.0485546299859734,-1.0449083644573092,-1.4827296401148087,-0.606325496687308,-1.5495087852408882,-0.15748342980634128,-0.25882124744482427,-1.1929829798553644,-0.191751069005205,-1.0936644477006419,-1.1221891852212245,-0.8213844291230232,-1.305423779625615,-4.079793570211151,-7.239320655878032,-1.7696417657274102,-1.8043374106825725,2.6331477137199,5.623419257648261,-3.9445094257780204,0.3111664458052755,0.8306384480824242,3.4600688521210143,1.1169250688719627
0.28125,-1.2227040504770885,0.3307054404514343,4.302334554298458,6.152777881066873,-0.4904307250702768,3.961449435904183,-2.394481617951673,6.237255147748276,-3.6767740781065177,-5.800586481009958,1.0641569043900634,1.2151818305047581,-0.05708859881607565,3.019588431712702,1.5655576709225367,-5.332427402589217,-6.755008155281368,-0.5599014824908709,-6.619267041889158,-1.2195104736703013,-0.9685288442948062,-4.147850752048967,-2.1790392304318957,-0.8083417300138611,-13.714496732094196,6.865128036374872,-1.1895585290190411,-1.5919600418105202,0.7865156628137482,-3.169823923846563,7.103024823692962,-7.5669568473204984,-4.521422954335861,-0.21759442407475457,0.5608703974263031,-3.7820862008019676,-4.710158738544887,-8.93463425523675,-9.796407685248619,-0.6648019607011119,-4.9815229225398,-3.1975772380893397,-3.8831875116012124,-0.8682447961322356,-2.0228617467405474,-0.14456127624412424,-0.6331533894835097,-0.9016202928032105,-0.41600064403220555,-1.6476974286993584,-2.8182136391161494,-1.9863267302420973,-2.392261325579068,-4.318996064002512,-5.736610720439698,-3.0835821511646384,-2.1699310621709103,-1.4626221123087053,2.17269345185543,-5.115690269577909,-0.9217505660305456,-0.7681653799424788,-1.3105693477494123,0.4876488634027037
0.28515625,-1.9845985151369852,-0.7206909817223964,4.6116584176928415,1.0006349706627329,-1.1280360796139872,3.0488249225488535,-1.4902321738415452,5.363195404553761,-1.5738030978939244,-4.771866040922101,0.1893838631950766,1.6847251234564995,-0.15141125466917635,3.9221355934804785,0.9954258162614433,-3.7467517952826563,-5.6693769821453746,-0.5483656608513552,-5.889462601162702,-2.220606215914573,-0.9439109467092042,-5.297038084591526,-1.9624304606267882,-2.4104116272045375,-10.196230728652392,9.171401097363026,-10.45752648910794,-0.9055662006308032,0.9783615878864406,-2.4451781061629676,7.3547565288113494,-8.716386777997743,-6.0103393090144,-0.4067472078824508,0.9241029081051827,-5.575437517709334,-4.025463793650061,-12.579233335368883,-11.29946359658259,-1.2063417309107294,-5.912099851470618,-4.223370863800991,-4.811991797999559,-1.0379402542579017,-2.130515826232978,-0.07570888991531599,-0.8554325677486653,-0.5471227114765584,-0.6294654800091619,-1.6966602968839788,-3.4222629039593775,-2.3264248996089707,-2.2522648588934544,-3.150968523815481,-3.413536841138636,-3.4942364942254907,-2.007466000444775,-5.90069012685315,-0.5750404845814032,-4.539439507803352,-1.7697102280741284,-1.388224403543981,-5.399928486568991,0.5922001359912235
0.2890625,-2.2684535749512253,-2.204868924438803,4.15989382550399,0.4380063341082816,-1.435613263035795,0.9386609691497314,0.20385947431270202,1.9249843405792748,1.7643965490694165,-1.0622200042497343,-0.6669800356721581,1.7051035305760123,-0.1351646019922335,3.6037284825349314,0.485251017804417,-1.5621786817917342,-3.5479033983928376,-0.4693874291353789,-3.2198056145119036,-2.382384828146982,-0.7722052777145124,-4.130151358834459,-1.7359844192194145,-1.8690162587589922,-4.168141743240376,12.576068123845836,-16.016763042167234,-0.3187207582383111,1.0343786221790905,-1.6147783332917556,5.894155853597583,-5.8791558430962,-5.198651008408559,-0.4254116633597615,1.3698990511257496,-4.3526374534953005,-2.0335218242599473,-8.563074476791112,-7.747008637054639,-1.2875103401023318,-4.341066928283828,-3.5065345411734032,-3.6830168456678654,-0.9466177533364728,-1.5592461475039672,-0.05184910020683116,-0.5279967753781843,-0.43474125542893727,-0.4143222600728898,-1.3894889411893945,-2.5501419885719754,-1.5963565770768644,-0.8154093361988473,-0.5011068798570999,-1.3102113625946423,-2.5896151553628917,-1.3071138789914696,-8.71877248343841,-2.2764522881152884,-2.040083233292263,-1.580364661310167,-1.3739421260412747,-6.364917963898253,0.7183667394358451
0.29296875,-2.133637154705074,-3.9033211889328148,1.8776233827503774,4.423336626615777,-1.7178195502102758,-0.8848109074591481,1.5908764705138632,-1.1358730280432305,4.221011935759654,3.4899160138496956,-1.1150857914849879,1.217281335389983,0.1581432827460901,1.7992103619049356,0.5346394050777337,0.6916769240990146,-1.5919486842362958,-0.2782707970318965,0.2825028634365911,-1.9351956332210962,-0.9710140766060561,-1.7016808025505026,-2.177479182788455,-0.22818812849747722,0.1789772173616973,13.95841745382308,-17.705270368018432,-0.10570673073114682,0.6479386773072405,-0.8485344174197267,3.2054840368968063,-1.0688580984029872,-3.1317282804993196,-0.4557100297243599,1.0714397754729474,-0.49928584310862567,0.20085041260245762,-0.7584565862318438,-1.3002761611817302,-1.2049001399590438,-0.9503099192611775,-1.2698157044415186,-0.8936178412014764,-0.4344622907739769,-0.3568875379434102,-0.0034275353280698913,0.4518367844230696,-0.38792006118998473,0.4071034554095757,-1.109448491848747,-0.8231444322264929,-0.019741868558879494,1.276710081859316,2.0956006476162186,-1.3631698387366737,-0.5804343530294298,-0.3286858694010199,-8.603188171367094,-3.1329571750137872,1.6140342689991531,-0.32912144932143333,-1.124253056872729,-3.753475736772912,0.2413531877690238
0.296875,-1.6086784259673759,-5.398638049499198,-2.270522756344062,8.779379994608714,-2.2044968758879326,-1.0737406119701773,1.7433330789802979,-0.9885182471199023,4.38134301896867,5.955859214871938,-0.9846016071971294,0.4650250127987341,0.6633094110009999,-0.899641935042789,1.1162451757426344,2.0076193518375485,-0.9822574339921781,0.008174738002810173,2.983305070336607,-1.41662173769465,-1.6542078648965686,0.25355580148495815,-3.426245535003412,0.7953944696315725,0.5620571057197189,9.811534112191897,-16.68087258087106,-0.13203408071295572,-0.22759378581518966,-0.16654030431864222,0.6284981505179801,2.8376668540352377,-1.431083038598075,-0.6187337722242634,-0.24664301264993316,3.7338131310012157,1.3927291305814848,4.947255364834005,4.335137230813624,-1.2717895678193172,2.775251581962666,1.5264712566978647,2.3763202898385933,0.5310487009478516,1.0650157551912087,0.28516608426109974,1.7370559167980506,0.022739914651787336,1.5279923850065003,-1.0798667029943636,0.6744796315068002,1.862038216846215,3.190235843468969,2.8281929824375327,-4.306518844258994,1.79991658547993,0.6400437684594459,-5.7313627047638835,-3.6288573599299188,4.8463697499939355,1.1136701075231121,-0.8783015146304973,0.2074608070695959,-0.9730811538103407
0.30078125,-0.7226407336105651,-6.0279036976118245,-6.483144866853273,8.601581570339253,-2.7587064427145584,0.538931522821907,0.5939862747575259,2.7690785409223615,2.2709043934670676,4.655628975010969,-0.26331459464596324,-0.11636507493579984,1.1501410381492652,-3.206696878067494,1.7730287205547122,1.7644960878793037,-2.107455234984964,0.3583957490936552,3.7493395027644354,-1.267492883403679,-2.380978564029355,0.5192558195508535,-4.767647638159049,0.31573831169707484,-1.9435572557730145,-0.5817666089628772,-13.764747245647822,-0.15235437911569566,-1.2346164476352477,0.2820010337751878,-0.4173475409490781,4.471314872050096,-0.9124158829559086,-0.9088898816712194,-2.1156818714987042,5.3761187665752015,0.670922491617303,4.945013624325702,6.186209088932493,-1.5531534686239479,5.408847941927212,3.757956256479674,4.86400810687015,1.8135055771873088,2.2504105143960476,1.003736200889754,2.776511338439058,1.056067579326434,2.370810341501562,-0.9649629738371952,1.2781190478092255,3.52239320093091,4.486720691940079,1.284588270802447,-8.403315355173177,3.7600549796140768,1.5091988551110778,-1.4224207217082494,-4.098350878633749,6.204025604244867,1.5272124584309832,-0.7267634021190094,2.2078555338827694,-2.502943190371999
0.3046875,0.29267187178420795,-5.154909582826443,-7.871008761449194,2.6355784541627956,-2.975011096720966,2.864469957812222,-1.0794414691989485,7.926076542344568,-0.8952674855500323,0.8204250986060466,0.9791643787428892,-0.17636266357556843,1.4558496523428537,-3.925513556731355,2.109869995021561,0.11710197477506187,-4.370889133622563,0.7718325956157119,2.6377141389962295,-1.6164307455115283,-2.542329455102089,-0.9444266894805583,-5.086620238215339,-1.1368307278615983,-4.405300282101866,-13.236754072940068,-8.90504016937101,-0.20794079649573746,-1.8050746908840272,0.15231597390969562,0.6592948863127037,4.695297546501814,-1.0018690104271006,-1.249375966708659,-3.608973874962468,2.7668916660932203,-1.9073236794177246,0.30020892324830195,3.6971408716950096,-1.8804392991361463,6.338610412018653,4.7738914200231335,5.91609594687778,3.1531252952766944,3.0354302054951923,2.126525863819392,3.2595453406868455,2.5621494644499823,2.601412438565479,-0.0009534033511803229,1.1662990074840196,4.7071641614873965,5.265325526849811,-1.13387412116869,-10.519715462799663,4.911483944257364,2.3643208791871024,2.901538707188316,-4.2887867853062405,5.4212648555857985,0.3778553464457521,-0.6824245017919196,0.5486740835238546,-3.619386064559337
0.30859375,0.8698742417035645,-2.7217465849221774,-4.6397493819969515,-5.233732948975465,-2.6146128721589745,4.420933599472532,-2.2862540518819587,11.364315509627804,-3.6171805056636774,-2.1644072945500583,2.50702270416172,0.3160645043511574,1.6329546774124046,-2.7730808958250126,2.1720099785955784,-2.326400482028713,-6.604357211245241,1.2520330620818227,0.6522200609066163,-2.3368524459447464,-1.9658249886876535,-3.206985601170203,-3.849610161996968,-2.41391750423771,-4.925843771206074,-21.00765899971113,-2.0884606169724464,-0.6470929793931257,-1.5898578249851163,-0.7845028568223105,3.1598514735254732,5.054632699978996,-0.4861696401057859,-1.5883907128309138,-3.927613272221965,-3.017121950947585,-5.286933154534899,-4.3190828664849885,-1.1716963772355715,-2.103610950731893,5.902879502534976,4.6350936276635935,5.676123549073121,4.247841930955898,3.5779868080467327,3.3552785729518217,3.3468107461392775,4.0819118796936955,2.4621719331696266,2.2539848032628584,0.9926572049606311,5.427035609905612,5.799951974870761,-2.3876996913709756,-8.67189588002064,5.356192130675026,3.2343876439707566,6.412689885910883,-3.3133766381077283,3.6723049727046244,-1.5384178925557612,-0.6989101207086851,-3.3937115329013303,-3.706588227368843
0.3125,0.31580527086584886,0.37471547612830025,2.0650471745671926,-8.894775698133337,-1.9562970802792883,4.399349329184921,-2.5193980126520668,11.223747591743704,-4.961405595571578,-1.4839929157807674,3.7968103416684817,1.0692192355637147,1.8537230502301631,-0.5528758435516063,2.3378416559675963,-4.875500222342501,-7.800239141998887,1.7380591169669488,-1.1545516645259684,-3.2119661709750256,-1.1807862301933252,-5.104584013620983,-1.787128762580876,-2.955109860911187,-4.1779505761223525,-18.15244655124163,5.452434223196952,-1.6966334010078628,-0.7836046261471072,-2.2417251494174173,5.457301286515154,5.656394757724392,1.103948897998469,-1.9306082236396709,-2.9037133849460712,-8.622312982671819,-7.899165214388218,-4.2506757264601225,-5.306055581783347,-2.3000998122828227,4.888848929911084,3.839742777135827,4.721726701671015,4.840353044055721,4.074186590468029,4.260230665670811,3.4676360170978606,5.144151463358025,2.582383051867876,5.1849485015448735,1.1609566839987313,5.753523619206872,6.114112662465091,-1.5201265015466725,-3.8039945504697545,5.389556067635841,3.925241477144637,8.745087926322789,-0.25928504193662644,2.666418608296391,-2.513429260386471,-0.6673199591329466,-6.273711443724661,-2.6268124217508433
0.31640625,-1.6436927911654269,2.568912118225276,8.57127073307208,-4.946256330865919,-1.663400304050403,3.141269019079207,-1.9814200829119175,8.062995181276996,-4.774222850705744,2.7730474958129454,4.1726750011933245,1.7001867923256402,2.176456743391552,1.4829847713647195,2.856956995075671,-6.807693843164351,-7.683423818029287,2.0911456616738473,-2.348333134463733,-4.023511404796011,-1.0504275992750387,-5.917346479186312,-0.5560784912760621,-3.0653649341543234,-4.275510182461674,-4.711475885213312,11.22128964026009,-3.0313769786924936,-0.04718602275005901,-3.3978885391607916,6.04442765589539,4.819299385055564,2.8098466651456917,-2.281084911766237,-1.069709258950445,-10.636201405587485,-8.453210849323987,1.681448546147448,-6.2914419029309805,-2.7100640574896198,3.8867625022036436,2.865590565272921,3.5720203977710954,4.822362276113035,4.482476385520469,4.545084050666743,3.8796355080232714,5.519623743608726,3.405645597796703,7.234885448226587,1.4789044695438973,5.67952965755093,5.97276400967894,0.48274376731935836,0.7566900132239712,5.172548034984386,4.138893454629587,9.496873303783733,4.831115926891265,3.2559686535829013,-1.1961351820554948,-0.4522975028674409,-5.531685183400288,-0.8016714943119936
0.3203125,-4.390637639744412,2.561725404172021,11.399057480232791,4.587084020700223,-2.2073926760433937,1.7211891425740058,-1.2442987436903057,4.192605082718014,-3.3258546909213265,7.749514994078475,3.268297996918977,2.008549426208798,2.43380350288505,2.5349270605303715,3.522499861049488,-7.448334642614571,-6.693598711112169,2.1843664014828583,-2.9721442368823467,-4.547285344862418,-2.037609107694051,-5.613279307257304,-1.4926450278323704,-3.0459645720607242,-6.29020982337862,12.873632247877167,12.945474220538456,-3.860805755961966,-0.042173479452494486,-3.414650773077761,4.568101387682395,1.0243022222846703,2.987452195392135,-2.5788350728227565,0.7595770021621032,-7.941307231542035,-6.580309752544196,10.323375070288627,-3.6692779079065807,-3.450057787828858,3.0539871192774344,1.9690681642063534,2.5164799798481647,4.338922323645862,4.569293719712668,4.259055005352437,4.419128836441708,5.294417230946538,4.7460370758565595,7.01206664211171,1.4934852012633268,5.218591651316803,5.298564013429738,1.465853716851429,1.8114021606560975,4.721787696556531,3.7998807971658937,8.169887447420182,10.408668270437223,4.74115772217966,2.2559661167272544,0.05006566842533823,-1.4197712424176228,1.0711159443750013
0.32421875,-6.533591042784477,0.26327874859364214,10.065631340682145,14.037537430051534,-3.353521876459251,1.0187883495683712,-0.728159604862957,1.6897283519032689,-0.9932306876713595,10.263037969165048,1.4678311681409824,2.0700908959809654,2.3818873405358403,2.658439824054767,3.827477981628522,-6.5622247749943625,-5.478470128310331,2.0271704013568375,-2.917410999719211,-4.572928690600978,-3.732642324168157,-4.668982386562808,-4.431263088027133,-2.3331149745346194,-8.954059018899706,25.76028444986829,10.306381389275131,-3.55773522407407,-0.9196357122846702,-2.1188673546987755,2.0416193834969785,-4.78539625080252,0.8746382030973283,-2.707883957041322,2.070781500709269,-2.3779037379904215,-2.9860098380327713,16.530436303076364,1.008610520700833,-4.293609734523595,2.3985069693578316,1.3507900237196284,1.8050655443082797,3.8000100001094013,4.243017984915761,3.7894830835184177,4.689384066526786,4.765738099083803,5.89318092173816,4.524917396502665,1.1072395532569979,4.622763274548259,4.528022663725068,0.02846093429750335,-1.208189183987525,4.184196027866825,3.2610442654014924,4.753692652016503,13.991959607974087,5.517302843168487,6.088648971339019,0.8899654821605739,3.390631078809625,2.4833117767143915
0.328125,-6.737675798527091,-3.039915167483645,7.39978540807701,18.6360247788178,-4.233467782466817,1.0912793114303354,-0.47413734594987544,0.8811825644160051,1.6310399786431364,9.344918645590653,-0.15931705400866913,2.091393157648019,1.97607468052597,2.400461020785779,3.467874848273432,-4.720301059281722,-4.469182932738695,1.7969782838914108,-1.6588292282500494,-4.020983557141753,-5.089359411259112,-3.7007754429643196,-7.638412969075025,0.12872801999146513,-9.80596513577311,28.489425493419155,5.2381199813899535,-2.27180556114829,-2.1693743527196037,-0.2461724780371105,0.04070903709892411,-9.106911304692439,-2.453735130667745,-2.587824924906889,2.929998935247016,2.7569833865355378,0.9165789227732424,16.84458189816285,5.235041148111327,-4.765957043592521,2.1551329962857526,1.3598297374182637,1.8205825084280203,3.7026328023575217,3.8078295307228145,3.6046119803644694,4.501983956669658,4.237463427056633,6.198085525091592,1.3748494174919328,0.7987285442342111,4.40692489380162,4.4312478976783956,-3.0066146596707397,-5.7959215903532595,4.002957145115184,3.1234103185237547,0.30545254032408564,13.718712059041305,4.535139842895229,8.066568684974825,2.0680272722196915,6.133691378879214,3.402919762178649
0.33203125,-4.735696597048063,-5.518765836538264,6.927777048428465,17.753521319204893,-4.025896523618459,1.3736582570208227,-0.34111853138533266,0.7054943081187307,3.5226522778668627,6.7043595345708,-0.5425704731222671,2.1759261302427326,1.4931095378799344,2.1208418321462608,2.7013504856957353,-3.1062812260851858,-3.8960152027350206,1.7204115804638858,1.2045658041111569,-3.071719668374989,-5.218153829192168,-3.132915908059208,-9.034604742928874,4.446153026622629,-7.602990886349737,22.1973083814079,0.38697688931689,-0.9089577450729994,-2.9682948168134775,1.0319099654708048,-0.4376462762463244,-8.504663721481057,-4.724098199361304,-2.259517898063259,3.7192036587467916,5.085187258021311,3.652823972402164,11.705105469949682,7.036547138457035,-4.510822675614534,2.7325319354019175,2.3451316282654435,2.8733655692344318,4.303584880033954,3.807634030955736,3.903332568546483,4.122574163791104,3.8246249702239288,5.624517555100891,-0.42874946932583924,1.1776284292116355,5.015557074320361,5.448834822176266,-5.058567912291812,-8.39393303651402,4.65312031173193,3.7540178115041885,-3.2926208295430754,9.776277112534187,2.2940137369942337,6.99630845909648,3.491988429770515,6.076589795543223,4.125275178345649
0.3359375,-1.6886233036892744,-6.0402531726447375,9.618449645031426,14.264362836080233,-2.681630498758079,1.4138784508119904,-0.32682868277425475,0.3627382205739736,3.5416591055548956,4.942237760441279,0.5566739827514906,2.224105191845353,1.3473416970596164,1.6907560298764457,2.187246094818782,-2.7471531401294214,-4.008877380718856,1.888807858474647,5.098722366387611,-2.139144979169959,-4.086725852069636,-3.0266924895902947,-7.774581371335975,8.823196414270228,-3.6350037323479385,12.943247635786257,-2.8968413858327793,-0.42123366449865784,-2.774652225710103,0.9613351246019105,0.49132513093562236,-2.7308942937971956,-4.283891251158973,-1.8797259077122817,4.563805932828727,4.486556763909406,4.29597692347008,4.698132925536091,5.98596528260234,-3.614747425515509,4.186198968110071,4.183935837751367,4.723586627131186,5.366080461401957,4.534750984335085,4.4358575403787075,4.049944448095735,3.392041780875023,4.764599677218578,-0.08572122358168721,2.2918712188165062,6.354133025079062,7.143083019334638,-4.044192537619208,-7.233562310828686,6.106317647344882,4.909463293699757,-4.46121991613929,4.467198676196921,0.4787639628233786,3.529842888908875,4.873583925281243,4.6700541412836465,4.796978766221143
0.33984375,0.5225214012159171,-4.850103575838688,12.955547106683474,11.173289486544524,-1.0340851714815757,1.3305813831849314,-0.6038388171726631,0.28288767294196326,1.3478939100125702,5.3139241836996804,2.2637750206343434,2.060582187960086,1.7328837640963355,0.8192471887025019,2.4131473368170036,-3.7861875125919893,-5.020739317305628,2.1689674445456673,8.298281793238816,-1.6339952399487274,-2.534752222297316,-3.1100420422230393,-4.8996655100741755,10.438668622210654,-0.7136714948007372,6.76001123415298,-5.154872761246263,-1.0115347300316408,-1.7153791730153873,-0.2467166136672841,1.974908092163187,4.62991561079674,-1.5769810585581188,-1.6182078874698846,4.989637455205025,2.5158205510411418,2.792260980044206,-0.1998462726625631,3.1336250603920295,-2.582336612420944,5.771846530357553,5.996222209989548,6.3741328763234195,6.235488497042421,5.657395044550168,4.674091896516452,4.517940802094206,2.7023346694072083,4.2972978831439885,1.3907224657344968,3.398031186961611,7.651065419839769,8.361383715274815,-0.43457617468075915,-3.6325137227969746,7.585457756821098,5.843655814401151,-3.052790371989312,0.6336427703480032,0.5437223828156394,-0.3424595688317633,5.694164584007192,3.849097924264327,5.054048839797604
0.34375,0.6284588966318438,-3.1836471576521976,13.198263278155796,8.981977012271097,-0.15509015272605972,1.5470815150297956,-1.2224018771520295,1.3488934331528823,-1.9657772733543342,6.9872689538552555,3.1693334021344106,1.6651771455775912,2.403383995713497,-0.38952597990185056,3.2119245732761534,-5.3979376901868354,-6.685079309666195,2.3022206641007763,8.883452819073248,-1.670955778382224,-1.5917370579569163,-2.980385172338761,-2.5138899201599436,7.722863300700389,-0.8259302582485146,5.49505857180429,-7.491243977658834,-1.970793346345044,-0.47743764756369306,-1.617653915611083,3.1504180180090136,8.834403320053966,1.0632870355046178,-1.5407126106981441,4.187092355339963,0.7023546058156049,-0.11704598384420178,-1.049396613616211,0.019987536873165013,-1.9576989053260239,6.211664676963366,6.531371113823742,6.569964470821703,6.27851251795839,6.375938284320951,4.245842768455676,5.19969688968707,1.6987300169090003,4.377938832531331,2.1728253069690626,3.502100385534479,7.917441401958299,8.10214185265055,3.0028426046184986,-0.7008921166699426,8.010094434716933,5.876262182004709,-0.4465445242129349,-0.4546635465566384,2.4590531563545612,-2.7070071121884505,5.397439748840578,4.225656515375401,4.180030812038526
0.34765625,-1.1001350456792536,-2.186151237328013,8.757724501497009,6.113449660753615,-0.4923359536081823,2.1764741116172837,-1.8909101264439905,3.416735186865521,-4.453477589502579,8.125516338995574,2.3601049382409487,1.2788872909276017,2.8082133873597117,-1.2649201344434933,3.8184361356235312,-6.326690688688739,-8.03453104578348,2.1244139911962097,6.1966092234744234,-1.9725393704847338,-1.6870766112539897,-2.3767635942226892,-2.157105124164111,2.009214055638206,-3.5969839801003616,6.512353922285143,-9.761880666630084,-2.3040023003943073,0.18875898283172587,-2.1806532770778744,3.523207883087223,7.753310961149516,1.2387917307801908,-1.5803257584356503,1.731936930291997,-0.6341559695515799,-3.3201932314305003,1.4927485052077836,-2.3870412314976313,-1.9129250490974243,4.67289282176147,5.103692657579801,4.778833528440581,5.3916109386823825,6.047687031948586,3.297562380322778,5.420407959310699,0.6940160793326537,4.5106233181203965,1.3275697747692126,2.2393702558422035,6.736741664739869,6.385937159905385,3.743161918181974,-0.6505665135308603,6.880189744108428,4.966842919727689,1.5469211938829184,-0.04842584207346634,4.663764037449167,-2.9752307461410687,3.778775772757492,4.786361408754307,1.7465132899518063
0.3515625,-3.098458300566465,-2.0925320991586567,1.640450756221024,1.4643032496366173,-1.539160244320048,2.7677589001013057,-2.1784559729523005,4.977366480776869,-4.789102021069251,7.469580781243472,0.08555540257769867,1.266086578468911,2.50455431421627,-1.0087005513017266,3.449770957798028,-5.625089139265738,-7.85272608632004,1.7221329519969752,1.5561476312335902,-2.0835740264742837,-2.415059578175173,-1.3655750205116164,-3.707862417487155,-3.1572570586396753,-6.831299480045183,5.914442379889239,-10.282457164421144,-1.5870474588934451,-0.04644567704109798,-1.659376408916843,2.9047549860469277,3.4277890053638007,-1.564600422185062,-1.6211663025977108,-1.8355731205920425,-2.1168974423226223,-5.86206651655903,5.17849640440419,-4.025190190954535,-2.162536473701355,1.6611860208724307,2.3088795461819713,1.819322144921643,4.153000468488187,4.753108062287969,2.4597339308201525,4.713212615347951,0.24967167476507662,4.015692719893919,-0.35656671289111275,0.2884429304633604,4.724591812892163,4.329653507365624,1.9080929225410794,-3.0404694895802953,4.824788736707802,3.7843325145349156,2.03179085560399,-0.8212062892466805,5.21586799304481,-2.068049626006988,1.279727633939735,4.126068787084437,-1.78799507585804
0.35546875,-3.7606214775906297,-2.343209531535932,-4.223350328758741,-3.835936181448116,-2.332076161790222,2.6738383089895024,-1.9400031150597936,4.44129158615066,-3.2439349217994478,4.959411767786044,-2.471554947676333,1.83576539462898,1.513227975764548,0.6321490500477093,1.9381185080435779,-3.2500598978905177,-5.682697000920195,1.3799119609712687,-2.4992632217083646,-1.7448360336026112,-3.006007607468526,-0.3175733329198311,-5.6770036048020796,-4.695096057041869,-8.471582057361402,2.1691185936423043,-7.55050568567315,-0.2977829721149709,-0.9633069654088631,-0.5551765497659988,1.3482253762579646,0.038717054958355535,-5.566000484344049,-1.6119734916571133,-5.127320669862998,-4.118376929097474,-7.266123921590911,7.524376733056715,-5.277499934650558,-2.271695357552519,-1.0972488226537824,-0.2322032417702818,-0.5703535509443136,3.43273402491499,3.2780913460614336,2.3944401598819325,3.233932162633015,0.7672180966504617,2.673897587821456,-1.2068443146263665,-1.1141943426571839,3.1754047208600937,3.2726894863116156,0.2137116263278081,-5.3019758001092505,3.2259215014970586,3.1712849063545026,1.4463074262497195,-4.4976355058609645,3.164214218758255,-1.4999407761117005,-1.1422166731752408,1.8391495513011973,-5.104909731268809
0.359375,-2.6986373144096127,-2.432100886049084,-6.090097002242263,-7.253922798475956,-2.3364387472684287,1.6572159391447325,-1.4819128437182427,1.7026925746412167,-1.3005258254163106,1.2068181366016042,-4.100786630080307,2.8502837479535303,0.3170812905498334,3.06868836274544,-0.09453273774701441,-0.22048757851156786,-2.4187783520873376,1.3519837880079126,-3.9346328973116904,-1.1220894959663141,-3.038496743133577,0.319138900131979,-6.561834797954557,-2.383558868875079,-8.162354792682738,-2.850745912783745,-2.339515643236605,0.6407562103630102,-2.0396384289526024,0.3536998585011708,-0.6869417454158909,0.14674446150379494,-8.17783014748819,-1.6032085163463474,-6.729093260143218,-5.983694062942795,-7.5130919999185135,6.864301351134326,-6.340429290053886,-2.07518856796293,-1.8939703731361701,-1.0572185256076785,-1.032455030958745,3.726974758802575,2.4918860045622084,3.2622190925899908,1.6763667565155753,2.1056679409260264,0.9871434932500336,-0.34954430650055174,-1.1799302528056188,3.0884349694199282,3.6740018879384584,1.6296279890813885,-4.8576001732307095,3.1329846344839116,3.443376912277877,0.7656428238745043,-10.100164775162755,-0.890600016188599,-2.1467485775993587,-2.587637367893859,-1.2368477261883999,-6.779775236567618
0.36328125,-0.9945704023678241,-2.590878502517592,-4.149427958983685,-7.232591820746007,-1.9175789587313798,0.16224762315352736,-1.2891442272099094,-1.5862278239230008,-0.4064560674689327,-3.179407476106613,-4.372917760161716,3.8766228134593375,-0.49347788314818536,5.218838534305843,-1.6393715220256306,1.9804903650457855,0.21800687177476552,1.652426971621399,-2.568624396161649,-0.6905933747549359,-2.756572342937758,0.2983240228042371,-6.059357147909624,1.1338335862572835,-7.1680208555578036,-5.820370881161142,2.086510569608045,0.6543198622987386,-2.817318950287321,0.5991163016119294,-2.290398065567417,2.602412986569271,-8.107389191467218,-1.6827660804987261,-6.13106807263895,-6.485951938279636,-6.824728366304209,3.1703276324721963,-7.005619129161574,-1.8275954926836133,-0.416340066066316,-0.019428788984632683,0.31856453303143506,4.758861870161797,2.65740200565219,4.549373161668419,0.7720661618716206,3.5959302866743172,-0.1543441033369332,1.42476566452758,-0.1995610287382183,4.367776923846948,4.772936551014032,6.960367677156499,-1.0171342814821833,4.390160182998175,4.1478915572597295,0.37286950447453104,-14.31488799005235,-5.285450603807683,-3.628935611875809,-2.824501305785847,-3.921658215853192,-6.231346813214076
0.3671875,-0.2635068420291208,-3.566278070944941,-0.6420885001425731,-4.572529885850231,-1.9509545369098038,-0.9596865076446953,-1.5916747495955545,-3.1931859314826982,-1.0125967673172607,-7.530545551840508,-3.7176701637925262,4.446657378652703,-0.6190214327664307,6.201063439197803,-1.9442907502270372,2.565245509820821,0.9251941668105648,2.047635685792462,-0.013796464906391942,-0.8551912395248258,-2.750617477531049,-0.2926345324175117,-5.134539614558502,2.732288061298699,-6.974266784253838,-4.7865034883252005,2.2445709047885667,-0.07306446408003836,-3.11967693447484,0.22124811952261242,-2.5973379610369074,3.9542887224448173,-6.259725409502934,-1.8787923788609102,-4.038826900204029,-5.052376409118377,-5.5229787576626705,-1.5506457974713783,-6.875775664296485,-1.9454004549842898,2.009768012986336,1.6526339833560058,2.060061001862589,5.714153781055737,3.295573775030871,5.442668273832561,0.8120464226919122,4.526587302818486,-0.10104940432257797,2.508257387813816,0.7980392231992658,5.930623045494428,5.364268262357397,14.268761736390791,4.670276297840387,5.803263269051337,4.522557052963497,-0.21400828220014123,-13.835433504507552,-8.233905132122846,-4.684520168739958,-2.407058951650278,-5.617044485250399,-4.1127470682676215
0.37109375,-1.3211063175986895,-5.648441204013101,2.3805605088585504,-1.5117209085565961,-2.914515913588225,-1.0135869683779668,-2.181076437456499,-1.8359563023011098,-2.55453208322882,-10.57448638546084,-2.824810618644861,4.346452581857429,-0.17097979959646373,5.817181843402018,-0.9265924323379169,2.161605076463266,-0.3067076507292422,2.262988938664959,1.6513950897869152,-1.6120091157027356,-3.343652667785966,-1.1343613694282373,-5.0002729300366155,1.4424734358113684,-7.968666147333709,-0.41803795768797614,-2.615247661705786,-0.8960531974598908,-3.041121108861711,-0.46100528356697446,-1.5807037528563657,1.945179794492718,-4.715333854972871,-2.1180705250715226,-1.8239974525469038,-2.537352987622321,-4.0611669253096885,-4.077563242155558,-5.679511298265081,-2.575099759112899,3.668486454126407,2.5569491160357978,2.8666404764635898,5.958115978723027,3.7289077371343318,5.498677469329925,1.5788115867828083,4.7481680234979855,1.1495482070390541,2.2455976854002064,1.0715666659011138,6.701700948992349,5.016952795672317,20.349372730103244,9.627012060094316,6.2731957841030495,4.255701099388033,-1.4690040667214117,-7.957322217398326,-8.470919726242558,-4.156286340689725,-2.161377947394933,-6.318766259791222,-1.8157233794645102
0.375,-3.5560314366645818,-7.937265618289198,4.351247999997904,0.3162333743205608,-4.320989095893733,0.08852384154670093,-2.6252111967005987,1.9777335205710975,-4.118486988976808,-10.467111929240533,-2.0168054510776137,3.743187860703256,0.5307083910707943,4.528047049150776,0.8711385081960467,2.215880153910937,-2.3423324890231565,2.2310730070354388,1.3297344157165325,-2.5365556558335025,-4.274290925249826,-1.9072526542979042,-6.015093771815569,-0.9552879888222696,-9.293452672423658,4.9602416971175884,-9.543263570876052,-1.360745234622386,-2.8107577524233163,-1.1612885538059734,-0.2946886104678934,-2.219476519234669,-4.789408469410651,-2.279166931215805,-0.5751982099991034,-0.7660777316043165,-3.0536012568143844,-2.2339089617742616,-3.495895992898499,-3.3976167843136524,4.1611210039865245,2.5700993224540234,2.9487276389984234,5.638644299172528,3.7875861010686913,5.070750631558056,2.6779770245018746,4.876625366848815,3.0564889884294995,1.8653881509701078,0.9244196812111931,6.651749459141415,4.608268806058708,22.99417687362638,11.988672541556127,5.904749217135761,3.8401135977501055,-2.7884607439766893,0.5679406020384078,-5.406736801298072,-1.8469618950416318,-2.4733182646347505,-5.948433085678202,-0.49259227846669607
0.37890625,-5.497287283274559,-8.747909118212277,5.5591809903679374,0.8457397034338564,-5.080691932079477,1.7388100556021253,-2.6376995431644783,6.177394937647904,-5.02907103427992,-5.942289130755181,-1.1911564304317008,3.0757481975801824,1.2389523315577018,3.081996250123984,2.6546957593182556,3.5056380633486537,-3.7900135720963597,2.1640289625709856,-0.6550286190118811,-3.120399478416559,-4.967420848084425,-2.462640358533571,-7.487970042737763,-1.7803873494842846,-9.786096266841788,9.219405138003188,-13.958390061030755,-1.5599860085228787,-2.6645577859884515,-1.698534440140909,-0.08037084838272118,-4.9571954972157,-5.978179421603588,-2.3029216343442878,-0.5170823920033203,-1.2322833118209817,-3.0842570458168708,2.9284674252318856,-0.9063292569223045,-3.879400561796961,4.9807146300002145,3.1902178998675783,4.130446496645259,5.6239637931039015,3.988755380553973,5.0974580882621146,3.8937616653632996,5.860959367314062,4.984092245771382,3.5361615830013946,1.4561663878234432,6.921544982145633,5.617191015991352,22.275560981966862,11.582152886495837,6.039326475193373,4.1595780098856405,-2.5076986786625723,7.139973279839206,0.8414589846824518,1.312026540687474,-3.034236930377829,-4.053610567733582,-0.4028313228638024
